File: Data/NIR/H0002LDPE_3.csv
Wavenumber,Intensity
3999.706,2.902155
4026.705,2.920917
4053.704,2.931853
4080.703,2.946637
4107.702,2.953099
4134.701,2.963866
4161.7,2.971775
4188.699,2.993573
4215.698,3.032874
4242.697,3.053359
4269.696,3.071454
4296.694,3.080317
4323.693,3.07946
4350.692,3.086308
4377.691,3.08762
4404.69,3.096009
4431.689,3.140215
4458.688,3.241592
4485.688,3.355832
4512.687,3.481056
4539.686,3.628476
4566.685,3.805924
4593.683,3.922808
4620.682,3.994996
4647.681,4.035988
4674.68,4.014455
4701.679,4.10365
4728.678,4.059318
4755.677,4.018386
4782.676,3.938754
4809.675,3.884063
4836.674,3.792098
4863.673,3.689852
4890.672,3.704686
4917.671,3.72809
4944.67,3.709181
4971.669,3.609726
4998.668,3.695565
5025.667,3.746866
5052.666,3.75862
5079.665,3.742837
5106.664,3.733044
5133.663,3.760928
5160.662,3.731512
5187.661,3.722603
5214.66,3.730224
5241.659,3.749746
5268.658,3.757786
5295.657,3.753948
5322.656,3.77541
5349.655,3.71919
5376.654,3.630767
5403.652,3.56097
5430.651,3.473637
5457.65,3.447062
5484.649,3.405923
5511.648,3.407199
5538.647,3.408827
5565.646,3.416215
5592.646,3.462361
5619.645,3.396998
5646.644,3.319884
5673.643,3.281985
5700.642,3.344705
5727.641,3.33291
5754.639,3.276667
5781.638,3.271809
5808.637,3.277353
5835.636,3.316794
5862.635,3.495326
5889.634,4.007343
5916.633,4.444687
5943.632,5.161579
5970.631,5.74527
5997.63,6.238134
6024.629,6.624529
6051.628,6.902749
6078.627,7.08028
6105.626,7.189447
6132.625,7.313572
6159.624,7.465784
6186.623,7.606431
6213.622,7.693305
6240.621,7.746933
6267.62,7.773458
6294.619,7.792749
6321.618,7.793324
6348.617,7.744609
6375.616,7.630084
6402.615,7.546066
6429.614,7.399124
6456.613,7.175296
6483.612,6.566302
6510.61,6.806862
6537.609,6.928102
6564.608,6.995605
6591.607,7.05945
6618.606,7.052238
6645.605,6.994034
6672.604,6.902546
6699.604,6.764241
6726.603,6.589736
6753.602,6.426884
6780.601,6.221983
6807.6,5.91272
6834.599,5.600086
6861.598,5.434216
6888.597,5.236484
6915.596,5.046406
6942.594,4.774217
6969.593,4.699642
6996.592,4.637188
7023.591,4.5159
7050.59,4.459914
7077.589,4.503941
7104.588,4.793299
7131.587,5.025679
7158.586,4.561638
7185.585,4.367584
7212.584,5.134371
7239.583,5.816479
7266.582,6.435522
7293.581,7.030262
7320.58,7.556
7347.579,7.864994
7374.578,8.13975
7401.577,8.337875
7428.576,8.429222
7455.575,8.478482
7482.574,8.49954
7509.573,8.491726
7536.572,8.471783
7563.571,8.431413
7590.57,8.394679
7617.569,8.326103
7644.568,8.230931
7671.566,8.15586
7698.565,8.1106
7725.564,8.046497
7752.563,7.988593
7779.563,7.92133
7806.562,7.8592
7833.561,7.785282
7860.56,7.676999
7887.559,7.553605
7914.558,7.382418
7941.557,7.206539
7968.556,6.987343
7995.555,6.723339
8022.554,6.419644
8049.553,6.097861
8076.552,5.725408
8103.551,5.31987
8130.55,4.865962
8157.548,4.422795
8184.547,4.021833
8211.546,3.817136
8238.545,3.803255
8265.544,3.863177
8292.543,4.063588
8319.542,4.322388
8346.541,4.628932
8373.54,4.966282
8400.539,5.20999
8427.538,5.307043
8454.537,5.709265
8481.536,6.08206
8508.535,6.360259
8535.534,6.507164
8562.533,6.273784
8589.532,6.705717
8616.531,7.32833
8643.53,7.78787
8670.529,8.093962
8697.528,8.357014
8724.527,8.672293
8751.525,8.963215
8778.524,9.194274
8805.523,9.332319
8832.522,9.409438
8859.521,9.43755
8886.521,9.482478
8913.52,9.493608
8940.519,9.475382
8967.518,9.490102
8994.517,9.508087
9021.516,9.532505
9048.515,9.564153
9075.514,9.562675
9102.513,9.591043
9129.512,9.57181
9156.511,9.595895
9183.51,9.551538
9210.509,9.537529
9237.508,9.498588
9264.507,9.502778
9291.506,9.498588
9318.504,9.491805
9345.503,9.48713
9372.502,9.46213
9399.501,9.424576
9426.5,9.371355
9453.499,9.30864
9480.498,9.285224
9507.497,9.260459
9534.496,9.215995
9561.495,9.143443
9588.494,9.125878
9615.493,9.165709
9642.492,9.229877
9669.491,9.328309
9696.49,9.416981
9723.489,9.506501
9750.488,9.624796
9777.487,9.639741
9804.486,9.661146
9831.485,9.680582
9858.484,9.760746
9885.482,9.856086
9912.481,9.939365
9939.48,10.06377
9966.479,10.1024
9993.479,10.16306
10020.48,10.18465
10047.48,10.21868
10074.48,10.305
10101.47,10.34726
10128.47,10.37171
10155.47,10.37377
10182.47,10.38834
10209.47,10.42496
10236.47,10.38574
10263.47,10.41298
10290.47,10.3887
10317.47,10.38104
10344.47,10.36806
10371.46,10.36644
10398.46,10.36599
10425.46,10.38594
10452.46,10.29408
10479.46,10.27446
10506.46,10.2183
10533.46,10.11742
10560.46,9.98379
10587.46,9.817625
10614.46,9.518576
10641.45,9.262899
10668.45,8.907829
10695.45,8.745546
10722.45,8.661404
10749.45,8.683846
10776.45,8.805202
10803.45,9.002643
10830.45,9.208724
10857.45,9.495381
10884.45,9.757432
10911.44,9.903442
10938.44,10.07585
10965.44,10.30482
10992.44,10.44292
11019.44,10.50683
11046.44,10.60711
11073.44,10.72661
11100.44,10.73295
11127.44,10.81185
11154.43,10.83294
11181.43,10.86244
11208.43,11.02551
11235.43,11.09895
11262.43,11.13223
11289.43,11.15443
11316.43,11.23432
11343.43,11.26267
11370.43,11.24558
11397.43,11.32714
11424.42,11.45859
11451.42,11.44734
11478.42,11.56036
11505.42,11.43842
11532.42,11.50878
11559.42,11.52678
11586.42,11.67937
11613.42,11.54536
11640.42,11.71709
11667.42,11.55702
11694.41,11.70043
11721.41,11.53582
11748.41,11.72852
11775.41,11.7185
11802.41,11.61926
11829.41,11.5792
11856.41,11.51664
11883.41,11.62443
11910.41,11.61003
11937.41,11.64776
11964.4,11.56777
11991.4,11.49457
11999.12,11.74246