File: Data/NIR/H0002LDPE_4.csv
Wavenumber,Intensity
3999.706,3.094076
4026.705,3.105883
4053.704,3.123371
4080.703,3.139647
4107.702,3.145395
4134.701,3.153397
4161.7,3.157868
4188.699,3.177298
4215.698,3.21262
4242.697,3.231951
4269.696,3.249432
4296.694,3.264818
4323.693,3.254859
4350.692,3.264783
4377.691,3.270113
4404.69,3.273682
4431.689,3.340085
4458.688,3.500642
4485.688,3.691124
4512.687,3.916889
4539.686,4.157817
4566.685,4.431017
4593.683,4.618526
4620.682,4.726096
4647.681,4.790147
4674.68,4.745759
4701.679,4.879197
4728.678,4.788137
4755.677,4.713844
4782.676,4.568234
4809.675,4.476045
4836.674,4.320153
4863.673,4.140415
4890.672,4.162421
4917.671,4.192291
4944.67,4.166133
4971.669,3.994642
4998.668,4.147491
5025.667,4.227593
5052.666,4.243272
5079.665,4.213012
5106.664,4.192448
5133.663,4.233111
5160.662,4.181146
5187.661,4.170551
5214.66,4.170732
5241.659,4.201795
5268.658,4.220926
5295.657,4.203828
5322.656,4.246522
5349.655,4.15056
5376.654,4.014571
5403.652,3.880243
5430.651,3.737401
5457.65,3.692078
5484.649,3.630996
5511.648,3.631883
5538.647,3.630614
5565.646,3.644811
5592.646,3.72144
5619.645,3.616953
5646.644,3.506559
5673.643,3.457528
5700.642,3.533348
5727.641,3.52124
5754.639,3.45288
5781.638,3.447479
5808.637,3.450214
5835.636,3.497609
5862.635,3.768902
5889.634,4.589974
5916.633,5.301891
5943.632,6.463851
5970.631,7.364817
5997.63,8.111513
6024.629,8.674312
6051.628,9.076805
6078.627,9.345437
6105.626,9.497898
6132.625,9.67564
6159.624,9.897071
6186.623,10.08596
6213.622,10.20547
6240.621,10.28004
6267.62,10.31826
6294.619,10.34902
6321.618,10.35111
6348.617,10.27327
6375.616,10.10477
6402.615,9.988873
6429.614,9.77396
6456.613,9.448769
6483.612,8.556552
6510.61,8.902535
6537.609,9.085897
6564.608,9.180426
6591.607,9.274042
6618.606,9.263155
6645.605,9.176218
6672.604,9.029434
6699.604,8.827785
6726.603,8.574967
6753.602,8.328525
6780.601,8.018203
6807.6,7.556458
6834.599,7.081134
6861.598,6.826482
6888.597,6.508512
6915.596,6.222787
6942.594,5.792686
6969.593,5.670341
6996.592,5.584784
7023.591,5.395829
7050.59,5.298076
7077.589,5.377641
7104.588,5.830378
7131.587,6.200335
7158.586,5.465944
7185.585,5.150006
7212.584,6.353297
7239.583,7.392028
7266.582,8.307568
7293.581,9.185098
7320.58,9.92624
7347.579,10.36046
7374.578,10.75264
7401.577,11.01499
7428.576,11.12682
7455.575,11.19446
7482.574,11.21941
7509.573,11.20687
7536.572,11.17413
7563.571,11.12128
7590.57,11.05039
7617.569,10.95856
7644.568,10.83127
7671.566,10.71993
7698.565,10.63904
7725.564,10.56628
7752.563,10.47807
7779.563,10.3686
7806.562,10.28151
7833.561,10.17893
7860.56,10.02982
7887.559,9.83444
7914.558,9.609232
7941.557,9.334973
7968.556,9.008449
7995.555,8.628944
8022.554,8.202728
8049.553,7.703333
8076.552,7.155415
8103.551,6.537672
8130.55,5.834415
8157.548,5.137807
8184.547,4.512264
8211.546,4.197423
8238.545,4.172971
8265.544,4.279327
8292.543,4.563905
8319.542,4.98489
8346.541,5.439546
8373.54,5.969585
8400.539,6.340786
8427.538,6.470808
8454.537,7.055977
8481.536,7.594047
8508.535,8.039091
8535.534,8.229837
8562.533,7.891594
8589.532,8.496151
8616.531,9.397639
8643.53,10.06589
8670.529,10.46136
8697.528,10.81241
8724.527,11.24787
8751.525,11.63852
8778.524,11.91657
8805.523,12.10152
8832.522,12.21843
8859.521,12.27198
8886.521,12.28492
8913.52,12.29043
8940.519,12.28335
8967.518,12.27278
8994.517,12.30373
9021.516,12.33551
9048.515,12.36526
9075.514,12.36284
9102.513,12.3793
9129.512,12.38165
9156.511,12.35029
9183.51,12.32285
9210.509,12.29815
9237.508,12.25397
9264.507,12.22151
9291.506,12.17107
9318.504,12.20201
9345.503,12.17796
9372.502,12.12539
9399.501,12.07272
9426.5,12.01904
9453.499,11.92673
9480.498,11.87137
9507.497,11.81812
9534.496,11.74142
9561.495,11.69432
9588.494,11.64404
9615.493,11.67723
9642.492,11.75123
9669.491,11.89468
9696.49,12.02083
9723.489,12.11797
9750.488,12.2083
9777.487,12.28951
9804.486,12.28654
9831.485,12.29815
9858.484,12.39942
9885.482,12.50311
9912.481,12.62486
9939.48,12.72086
9966.479,12.84528
9993.479,12.86604
10020.48,12.90843
10047.48,12.97474
10074.48,13.00083
10101.47,13.07697
10128.47,13.08016
10155.47,13.08355
10182.47,13.1165
10209.47,13.12806
10236.47,13.10453
10263.47,13.15435
10290.47,13.11564
10317.47,13.045
10344.47,13.09603
10371.46,13.05135
10398.46,13.01239
10425.46,13.00115
10452.46,12.9587
10479.46,12.91658
10506.46,12.82048
10533.46,12.63211
10560.46,12.4725
10587.46,12.1875
10614.46,11.91203
10641.45,11.4901
10668.45,11.04935
10695.45,10.73033
10722.45,10.65862
10749.45,10.71999
10776.45,10.85264
10803.45,11.18808
10830.45,11.4545
10857.45,11.74538
10884.45,12.0209
10911.44,12.28075
10938.44,12.49724
10965.44,12.68529
10992.44,12.90768
11019.44,13.03244
11046.44,13.14582
11073.44,13.21681
11100.44,13.3367
11127.44,13.25523
11154.43,13.39935
11181.43,13.45163
11208.43,13.62111
11235.43,13.64595
11262.43,13.78565
11289.43,13.69828
11316.43,13.77848
11343.43,13.87269
11370.43,13.88946
11397.43,13.91146
11424.42,14.02614
11451.42,14.10692
11478.42,13.96416
11505.42,13.94791
11532.42,14.15155
11559.42,14.05859
11586.42,14.0716
11613.42,14.22123
11640.42,14.24164
11667.42,14.18025
11694.41,14.14756
11721.41,14.221
11748.41,14.34106
11775.41,14.26284
11802.41,14.33514
11829.41,14.27601
11856.41,14.12998
11883.41,14.44578
11910.41,14.32428
11937.41,14.34975
11964.4,14.23239
11991.4,14.24051
11999.12,14.17579