File: Data/NIR/H0003LDPE_5.csv
Wavenumber,Intensity
3999.706,3.53465
4026.705,3.545675
4053.704,3.56517
4080.703,3.574942
4107.702,3.579126
4134.701,3.588133
4161.7,3.59575
4188.699,3.618441
4215.698,3.657269
4242.697,3.683064
4269.696,3.700369
4296.694,3.72527
4323.693,3.694921
4350.692,3.730023
4377.691,3.745434
4404.69,3.757082
4431.689,3.821351
4458.688,3.982494
4485.688,4.189023
4512.687,4.428747
4539.686,4.703135
4566.685,5.007128
4593.683,5.224337
4620.682,5.356791
4647.681,5.432605
4674.68,5.389577
4701.679,5.539061
4728.678,5.436021
4755.677,5.354325
4782.676,5.194849
4809.675,5.093844
4836.674,4.917946
4863.673,4.716588
4890.672,4.74
4917.671,4.77081
4944.67,4.741598
4971.669,4.555007
4998.668,4.712352
5025.667,4.8012
5052.666,4.816262
5079.665,4.785504
5106.664,4.761874
5133.663,4.809128
5160.662,4.753775
5187.661,4.740194
5214.66,4.743752
5241.659,4.774375
5268.658,4.790844
5295.657,4.774644
5322.656,4.817413
5349.655,4.718296
5376.654,4.568576
5403.652,4.428611
5430.651,4.283637
5457.65,4.23855
5484.649,4.176202
5511.648,4.173032
5538.647,4.178754
5565.646,4.188533
5592.646,4.257782
5619.645,4.163316
5646.644,4.056535
5673.643,4.009386
5700.642,4.081135
5727.641,4.083539
5754.639,4.005921
5781.638,3.992276
5808.637,4.005782
5835.636,4.056002
5862.635,4.29305
5889.634,5.129827
5916.633,5.944967
5943.632,7.426011
5970.631,8.526974
5997.63,9.419467
6024.629,10.09641
6051.628,10.57724
6078.627,10.90962
6105.626,11.10107
6132.625,11.32343
6159.624,11.60067
6186.623,11.85139
6213.622,11.99929
6240.621,12.09659
6267.62,12.15022
6294.619,12.1887
6321.618,12.1917
6348.617,12.10896
6375.616,11.90764
6402.615,11.7777
6429.614,11.51769
6456.613,11.14571
6483.612,10.09538
6510.61,10.46429
6537.609,10.66661
6564.608,10.77123
6591.607,10.87123
6618.606,10.85632
6645.605,10.74809
6672.604,10.57294
6699.604,10.32886
6726.603,10.02391
6753.602,9.724758
6780.601,9.358036
6807.6,8.801499
6834.599,8.2457
6861.598,7.941586
6888.597,7.554932
6915.596,7.200671
6942.594,6.698717
6969.593,6.54277
6996.592,6.453146
7023.591,6.223869
7050.59,6.110938
7077.589,6.185735
7104.588,6.715401
7131.587,7.147198
7158.586,6.300578
7185.585,5.908485
7212.584,7.283355
7239.583,8.52037
7266.582,9.611568
7293.581,10.66776
7320.58,11.57785
7347.579,12.09435
7374.578,12.60888
7401.577,12.98179
7428.576,13.12916
7455.575,13.20352
7482.574,13.24185
7509.573,13.2336
7536.572,13.20039
7563.571,13.12514
7590.57,13.04285
7617.569,12.92925
7644.568,12.77934
7671.566,12.64137
7698.565,12.54715
7725.564,12.4386
7752.563,12.3372
7779.563,12.20777
7806.562,12.10179
7833.561,11.95655
7860.56,11.78007
7887.559,11.54916
7914.558,11.26299
7941.557,10.94345
7968.556,10.52803
7995.555,10.08685
8022.554,9.562731
8049.553,8.968419
8076.552,8.29565
8103.551,7.567535
8130.55,6.730994
8157.548,5.916762
8184.547,5.21018
8211.546,4.852845
8238.545,4.828844
8265.544,4.923295
8292.543,5.243943
8319.542,5.694913
8346.541,6.211293
8373.54,6.793621
8400.539,7.220411
8427.538,7.395926
8454.537,8.115003
8481.536,8.766512
8508.535,9.268769
8535.534,9.538507
8562.533,9.157334
8589.532,9.853955
8616.531,10.88397
8643.53,11.68081
8670.529,12.16896
8697.528,12.58246
8724.527,13.12696
8751.525,13.61139
8778.524,13.95555
8805.523,14.17845
8832.522,14.33561
8859.521,14.38229
8886.521,14.43663
8913.52,14.4205
8940.519,14.4102
8967.518,14.3963
8994.517,14.43914
9021.516,14.44738
9048.515,14.48394
9075.514,14.49123
9102.513,14.49195
9129.512,14.47975
9156.511,14.42756
9183.51,14.4101
9210.509,14.34773
9237.508,14.30354
9264.507,14.24938
9291.506,14.21721
9318.504,14.22787
9345.503,14.19319
9372.502,14.13991
9399.501,14.06043
9426.5,13.99326
9453.499,13.856
9480.498,13.78552
9507.497,13.70957
9534.496,13.65027
9561.495,13.56553
9588.494,13.49131
9615.493,13.53783
9642.492,13.62748
9669.491,13.77245
9696.49,13.88383
9723.489,14.01155
9750.488,14.13435
9777.487,14.22212
9804.486,14.17824
9831.485,14.22034
9858.484,14.33385
9885.482,14.45872
9912.481,14.56542
9939.48,14.70042
9966.479,14.78893
9993.479,14.84111
10020.48,14.89397
10047.48,14.96949
10074.48,15.01942
10101.47,15.06568
10128.47,15.10549
10155.47,15.10653
10182.47,15.06779
10209.47,15.11571
10236.47,15.10684
10263.47,15.12562
10290.47,15.09681
10317.47,15.06027
10344.47,15.04149
10371.46,15.01448
10398.46,14.94887
10425.46,14.88944
10452.46,14.86902
10479.46,14.79894
10506.46,14.63495
10533.46,14.46343
10560.46,14.22571
10587.46,13.96876
10614.46,13.54175
10641.45,13.06119
10668.45,12.55876
10695.45,12.2301
10722.45,12.08792
10749.45,12.12543
10776.45,12.29285
10803.45,12.63197
10830.45,12.94949
10857.45,13.26112
10884.45,13.57166
10911.44,13.8813
10938.44,14.13371
10965.44,14.39176
10992.44,14.62503
11019.44,14.73867
11046.44,14.82022
11073.44,14.9506
11100.44,15.03154
11127.44,15.02093
11154.43,15.18142
11181.43,15.19606
11208.43,15.37155
11235.43,15.43163
11262.43,15.54259
11289.43,15.50318
11316.43,15.57333
11343.43,15.66491
11370.43,15.62711
11397.43,15.69036
11424.42,15.779
11451.42,15.8088
11478.42,15.83231
11505.42,15.72821
11532.42,15.9278
11559.42,15.99626
11586.42,15.92969
11613.42,15.88826
11640.42,16.03076
11667.42,16.04147
11694.41,15.97867
11721.41,15.92091
11748.41,16.06521
11775.41,16.08085
11802.41,16.05567
11829.41,15.85951
11856.41,16.04713
11883.41,16.08881
11910.41,15.84241
11937.41,15.95207
11964.4,15.94436
11991.4,15.73116
11999.12,15.93708