File: Data/NIR/H0003LDPE_2.csv
Wavenumber,Intensity
3999.706,1.920663
4026.705,1.935005
4053.704,1.944164
4080.703,1.949353
4107.702,1.957656
4134.701,1.960476
4161.7,1.969311
4188.699,1.981627
4215.698,2.003981
4242.697,2.021362
4269.696,2.032957
4296.694,2.044391
4323.693,2.035165
4350.692,2.04683
4377.691,2.04443
4404.69,2.051993
4431.689,2.083006
4458.688,2.165585
4485.688,2.255833
4512.687,2.366547
4539.686,2.495298
4566.685,2.64025
4593.683,2.735709
4620.682,2.794251
4647.681,2.828656
4674.68,2.811022
4701.679,2.881024
4728.678,2.843759
4755.677,2.802228
4782.676,2.730865
4809.675,2.687269
4836.674,2.602643
4863.673,2.511786
4890.672,2.525629
4917.671,2.547072
4944.67,2.528568
4971.669,2.443617
4998.668,2.511832
5025.667,2.554318
5052.666,2.565703
5079.665,2.55159
5106.664,2.545407
5133.663,2.567271
5160.662,2.540244
5187.661,2.536887
5214.66,2.53879
5241.659,2.557486
5268.658,2.564983
5295.657,2.559026
5322.656,2.577414
5349.655,2.529689
5376.654,2.44963
5403.652,2.391742
5430.651,2.316343
5457.65,2.302627
5484.649,2.26756
5511.648,2.270328
5538.647,2.267751
5565.646,2.273617
5592.646,2.313281
5619.645,2.259937
5646.644,2.201647
5673.643,2.175504
5700.642,2.216074
5727.641,2.209972
5754.639,2.172873
5781.638,2.168007
5808.637,2.171452
5835.636,2.203204
5862.635,2.339805
5889.634,2.773808
5916.633,3.153182
5943.632,3.787208
5970.631,4.295711
5997.63,4.730515
6024.629,5.072613
6051.628,5.312724
6078.627,5.471587
6105.626,5.57194
6132.625,5.681944
6159.624,5.815208
6186.623,5.93733
6213.622,6.012079
6240.621,6.065019
6267.62,6.086195
6294.619,6.104012
6321.618,6.105942
6348.617,6.063319
6375.616,5.956445
6402.615,5.884804
6429.614,5.75449
6456.613,5.556165
6483.612,5.021105
6510.61,5.228232
6537.609,5.337789
6564.608,5.394833
6591.607,5.451447
6618.606,5.449689
6645.605,5.393986
6672.604,5.315841
6699.604,5.185252
6726.603,5.03378
6753.602,4.89087
6780.601,4.706293
6807.6,4.434235
6834.599,4.158206
6861.598,4.016003
6888.597,3.835598
6915.596,3.671467
6942.594,3.427564
6969.593,3.369321
6996.592,3.319667
7023.591,3.209123
7050.59,3.15833
7077.589,3.205003
7104.588,3.457268
7131.587,3.657526
7158.586,3.261594
7185.585,3.082236
7212.584,3.749414
7239.583,4.351346
7266.582,4.893995
7293.581,5.424497
7320.58,5.884769
7347.579,6.16888
7374.578,6.416827
7401.577,6.58748
7428.576,6.673449
7455.575,6.71079
7482.574,6.733027
7509.573,6.715248
7536.572,6.700507
7563.571,6.669802
7590.57,6.62701
7617.569,6.569697
7644.568,6.479117
7671.566,6.412689
7698.565,6.369712
7725.564,6.316891
7752.563,6.261294
7779.563,6.199922
7806.562,6.143283
7833.561,6.081073
7860.56,5.981756
7887.559,5.861697
7914.558,5.719062
7941.557,5.555146
7968.556,5.3606
7995.555,5.127818
8022.554,4.854573
8049.553,4.551421
8076.552,4.233936
8103.551,3.876105
8130.55,3.477457
8157.548,3.093566
8184.547,2.75229
8211.546,2.577368
8238.545,2.564914
8265.544,2.613753
8292.543,2.772872
8319.542,2.990374
8346.541,3.260459
8373.54,3.54999
8400.539,3.763637
8427.538,3.845415
8454.537,4.188807
8481.536,4.515563
8508.535,4.762115
8535.534,4.886744
8562.533,4.6875
8589.532,5.048014
8616.531,5.609813
8643.53,6.031543
8670.529,6.292295
8697.528,6.524399
8724.527,6.805484
8751.525,7.072227
8778.524,7.248623
8805.523,7.392454
8832.522,7.461781
8859.521,7.488256
8886.521,7.50628
8913.52,7.525942
8940.519,7.499079
8967.518,7.515476
8994.517,7.52862
9021.516,7.562491
9048.515,7.577593
9075.514,7.56784
9102.513,7.600985
9129.512,7.584581
9156.511,7.581486
9183.51,7.542834
9210.509,7.530175
9237.508,7.498117
9264.507,7.513371
9291.506,7.480159
9318.504,7.483913
9345.503,7.483562
9372.502,7.434313
9399.501,7.406624
9426.5,7.358166
9453.499,7.310318
9480.498,7.273205
9507.497,7.254141
9534.496,7.205576
9561.495,7.157514
9588.494,7.128167
9615.493,7.144647
9642.492,7.211957
9669.491,7.30071
9696.49,7.371469
9723.489,7.458439
9750.488,7.560163
9777.487,7.56678
9804.486,7.595001
9831.485,7.583156
9858.484,7.64214
9885.482,7.73799
9912.481,7.803774
9939.48,7.88924
9966.479,7.986552
9993.479,7.998178
10020.48,8.025845
10047.48,8.054498
10074.48,8.116853
10101.47,8.129799
10128.47,8.184593
10155.47,8.169027
10182.47,8.179575
10209.47,8.189462
10236.47,8.200163
10263.47,8.228179
10290.47,8.172845
10317.47,8.160397
10344.47,8.13695
10371.46,8.159968
10398.46,8.14734
10425.46,8.149585
10452.46,8.064935
10479.46,8.074963
10506.46,8.015852
10533.46,7.928155
10560.46,7.766757
10587.46,7.604457
10614.46,7.345136
10641.45,7.110998
10668.45,6.832075
10695.45,6.624258
10722.45,6.593405
10749.45,6.572045
10776.45,6.719016
10803.45,6.890086
10830.45,7.07778
10857.45,7.304565
10884.45,7.527946
10911.44,7.623145
10938.44,7.856964
10965.44,7.96637
10992.44,8.126214
11019.44,8.242476
11046.44,8.252019
11073.44,8.394814
11100.44,8.385415
11127.44,8.464743
11154.43,8.485724
11181.43,8.501017
11208.43,8.64369
11235.43,8.676262
11262.43,8.760493
11289.43,8.736685
11316.43,8.804509
11343.43,8.81653
11370.43,8.828001
11397.43,8.930279
11424.42,8.951328
11451.42,8.979709
11478.42,9.071877
11505.42,9.080192
11532.42,9.060954
11559.42,9.077969
11586.42,9.128562
11613.42,9.068368
11640.42,9.16997
11667.42,8.992638
11694.41,9.179313
11721.41,9.031961
11748.41,9.132889
11775.41,9.2482
11802.41,8.986103
11829.41,9.226423
11856.41,9.11783
11883.41,9.073305
11910.41,9.171577
11937.41,8.977797
11964.4,9.113135
11991.4,8.944483
11999.12,9.118388