File: Data/NIR/H0007HDPE_2.csv
Wavenumber,Intensity
3999.706,3.073153
4026.705,3.063359
4053.704,3.066032
4080.703,3.063013
4107.702,3.063525
4134.701,3.071263
4161.7,3.081506
4188.699,3.094079
4215.698,3.139149
4242.697,3.156551
4269.696,3.19368
4296.694,3.220303
4323.693,3.164892
4350.692,3.215073
4377.691,3.266862
4404.69,3.380785
4431.689,3.562724
4458.688,3.76506
4485.688,3.963272
4512.687,4.204125
4539.686,4.472703
4566.685,4.768707
4593.683,4.946269
4620.682,5.049511
4647.681,5.101658
4674.68,5.01955
4701.679,5.195989
4728.678,5.081172
4755.677,4.985167
4782.676,4.799602
4809.675,4.697134
4836.674,4.540478
4863.673,4.352524
4890.672,4.398921
4917.671,4.440252
4944.67,4.410921
4971.669,4.236012
4998.668,4.399507
5025.667,4.496093
5052.666,4.518855
5079.665,4.48382
5106.664,4.469884
5133.663,4.528816
5160.662,4.455094
5187.661,4.450145
5214.66,4.462691
5241.659,4.506092
5268.658,4.537668
5295.657,4.518613
5322.656,4.588135
5349.655,4.462019
5376.654,4.293134
5403.652,4.168587
5430.651,3.994184
5457.65,3.952131
5484.649,3.865278
5511.648,3.88548
5538.647,3.887771
5565.646,3.899989
5592.646,4.031729
5619.645,3.880007
5646.644,3.686545
5673.643,3.540803
5700.642,3.759563
5727.641,3.664561
5754.639,3.492967
5781.638,3.424266
5808.637,3.507423
5835.636,3.67374
5862.635,4.290174
5889.634,5.443984
5916.633,6.161515
5943.632,6.88126
5970.631,7.7005
5997.63,8.553388
6024.629,9.250622
6051.628,9.75105
6078.627,10.07344
6105.626,10.2709
6132.625,10.46964
6159.624,10.63315
6186.623,10.79398
6213.622,10.90151
6240.621,10.97472
6267.62,10.99427
6294.619,11.00863
6321.618,11.01283
6348.617,10.89281
6375.616,10.6341
6402.615,10.47733
6429.614,10.1892
6456.613,9.759086
6483.612,8.604314
6510.61,9.169704
6537.609,9.447403
6564.608,9.606714
6591.607,9.756608
6618.606,9.74698
6645.605,9.664558
6672.604,9.504969
6699.604,9.274145
6726.603,8.978903
6753.602,8.72134
6780.601,8.386492
6807.6,7.836641
6834.599,7.269568
6861.598,7.031759
6888.597,6.725661
6915.596,6.461957
6942.594,6.000133
6969.593,5.89896
6996.592,5.809972
7023.591,5.596291
7050.59,5.55394
7077.589,5.724771
7104.588,6.189316
7131.587,6.56952
7158.586,5.730237
7185.585,5.469875
7212.584,6.874895
7239.583,8.035189
7266.582,9.138274
7293.581,10.14445
7320.58,11.03748
7347.579,11.60244
7374.578,11.9255
7401.577,12.0956
7428.576,12.20235
7455.575,12.26897
7482.574,12.30883
7509.573,12.27777
7536.572,12.22909
7563.571,12.14317
7590.57,12.05181
7617.569,11.91573
7644.568,11.74541
7671.566,11.59819
7698.565,11.50485
7725.564,11.40729
7752.563,11.30992
7779.563,11.17918
7806.562,11.08508
7833.561,10.95802
7860.56,10.7862
7887.559,10.54212
7914.558,10.27433
7941.557,9.956314
7968.556,9.570052
7995.555,9.152325
8022.554,8.66785
8049.553,8.106384
8076.552,7.506055
8103.551,6.86197
8130.55,6.137933
8157.548,5.435488
8184.547,4.780226
8211.546,4.439078
8238.545,4.44216
8265.544,4.562073
8292.543,4.921657
8319.542,5.393475
8346.541,5.938281
8373.54,6.611349
8400.539,7.050329
8427.538,7.033475
8454.537,7.687493
8481.536,8.28691
8508.535,8.760012
8535.534,8.942411
8562.533,8.308125
8589.532,9.145856
8616.531,10.39593
8643.53,11.2285
8670.529,11.75062
8697.528,12.23989
8724.527,12.75008
8751.525,13.22982
8778.524,13.57896
8805.523,13.7873
8832.522,13.8968
8859.521,13.94394
8886.521,13.95802
8913.52,13.94521
8940.519,13.91215
8967.518,13.90921
8994.517,13.93426
9021.516,13.97444
9048.515,14.00975
9075.514,14.03216
9102.513,14.0625
9129.512,14.01052
9156.511,14.00805
9183.51,13.947
9210.509,13.88989
9237.508,13.82053
9264.507,13.78067
9291.506,13.77288
9318.504,13.74019
9345.503,13.74757
9372.502,13.69191
9399.501,13.57943
9426.5,13.47875
9453.499,13.34667
9480.498,13.24162
9507.497,13.18133
9534.496,13.09077
9561.495,12.98372
9588.494,12.89296
9615.493,12.93165
9642.492,13.08216
9669.491,13.27982
9696.49,13.42304
9723.489,13.63
9750.488,13.77628
9777.487,13.85992
9804.486,13.87659
9831.485,13.86645
9858.484,14.01882
9885.482,14.22347
9912.481,14.34274
9939.48,14.52945
9966.479,14.63303
9993.479,14.71815
10020.48,14.77273
10047.48,14.89743
10074.48,14.95622
10101.47,14.9875
10128.47,15.03611
10155.47,14.99672
10182.47,15.01549
10209.47,15.02579
10236.47,15.0017
10263.47,15.02067
10290.47,14.97986
10317.47,14.9346
10344.47,14.91648
10371.46,14.88101
10398.46,14.82759
10425.46,14.82196
10452.46,14.71397
10479.46,14.61051
10506.46,14.4703
10533.46,14.25277
10560.46,13.95696
10587.46,13.57156
10614.46,13.09606
10641.45,12.57064
10668.45,11.94931
10695.45,11.53361
10722.45,11.38909
10749.45,11.47122
10776.45,11.77432
10803.45,12.1344
10830.45,12.54366
10857.45,12.95018
10884.45,13.43528
10911.44,13.75709
10938.44,14.14017
10965.44,14.46726
10992.44,14.70644
11019.44,14.84006
11046.44,14.98117
11073.44,15.04681
11100.44,15.06812
11127.44,15.1605
11154.43,15.18975
11181.43,15.24996
11208.43,15.49256
11235.43,15.56813
11262.43,15.73784
11289.43,15.78927
11316.43,15.76922
11343.43,15.91682
11370.43,15.859
11397.43,15.92951
11424.42,16.07937
11451.42,16.14494
11478.42,16.22807
11505.42,16.10762
11532.42,16.20722
11559.42,16.32781
11586.42,16.40167
11613.42,16.36278
11640.42,16.39665
11667.42,16.23221
11694.41,16.37629
11721.41,16.26623
11748.41,16.32161
11775.41,16.33337
11802.41,16.32923
11829.41,16.28182
11856.41,16.32555
11883.41,16.31021
11910.41,16.43877
11937.41,16.41074
11964.4,16.46487
11991.4,16.46025
11999.12,16.51515