File: Data/NIR/H0008HDPE_6.csv
Wavenumber,Intensity
3999.706,3.775532
4026.705,3.764402
4053.704,3.784916
4080.703,3.794633
4107.702,3.790884
4134.701,3.80423
4161.7,3.812873
4188.699,3.83875
4215.698,3.880198
4242.697,3.905516
4269.696,3.936013
4296.694,3.965222
4323.693,3.920017
4350.692,3.960184
4377.691,4.006936
4404.69,4.183634
4431.689,4.456334
4458.688,4.73363
4485.688,4.994274
4512.687,5.333047
4539.686,5.654762
4566.685,6.01427
4593.683,6.225004
4620.682,6.343482
4647.681,6.418896
4674.68,6.322443
4701.679,6.523132
4728.678,6.377386
4755.677,6.308551
4782.676,6.092425
4809.675,5.98068
4836.674,5.782403
4863.673,5.54791
4890.672,5.612532
4917.671,5.670187
4944.67,5.647779
4971.669,5.429851
4998.668,5.666342
5025.667,5.793017
5052.666,5.815245
5079.665,5.768584
5106.664,5.743753
5133.663,5.814962
5160.662,5.727953
5187.661,5.723626
5214.66,5.74394
5241.659,5.806295
5268.658,5.850935
5295.657,5.82805
5322.656,5.92907
5349.655,5.760526
5376.654,5.546988
5403.652,5.38948
5430.651,5.140228
5457.65,5.100644
5484.649,4.970514
5511.648,5.005788
5538.647,5.008646
5565.646,5.042215
5592.646,5.244945
5619.645,5.027145
5646.644,4.722853
5673.643,4.452306
5700.642,4.847531
5727.641,4.685555
5754.639,4.360577
5781.638,4.226376
5808.637,4.390388
5835.636,4.706872
5862.635,5.734243
5889.634,7.259067
5916.633,8.095536
5943.632,8.772204
5970.631,9.71234
5997.63,10.70461
6024.629,11.46888
6051.628,12.00901
6078.627,12.34498
6105.626,12.22523
6132.625,12.67101
6159.624,12.97433
6186.623,13.17968
6213.622,13.29975
6240.621,13.40116
6267.62,13.44227
6294.619,13.483
6321.618,13.48785
6348.617,13.36441
6375.616,13.09694
6402.615,12.94808
6429.614,12.64487
6456.613,12.18352
6483.612,10.8854
6510.61,11.56409
6537.609,11.8914
6564.608,12.09198
6591.607,12.26867
6618.606,12.28281
6645.605,12.2023
6672.604,12.03228
6699.604,11.79173
6726.603,11.45931
6753.602,11.17417
6780.601,10.78801
6807.6,10.15309
6834.599,9.486746
6861.598,9.210033
6888.597,8.856467
6915.596,8.551482
6942.594,7.972536
6969.593,7.871877
6996.592,7.76599
7023.591,7.476346
7050.59,7.444297
7077.589,7.677683
7104.588,8.264956
7131.587,8.752856
7158.586,7.710772
7185.585,7.364675
7212.584,9.17808
7239.583,10.62618
7266.582,11.92587
7293.581,13.0888
7320.58,14.09079
7347.579,14.72788
7374.578,15.04149
7401.577,15.19776
7428.576,15.30146
7455.575,15.39717
7482.574,15.44377
7509.573,15.41069
7536.572,15.37665
7563.571,15.29805
7590.57,15.20676
7617.569,15.07338
7644.568,14.89005
7671.566,14.73836
7698.565,14.64592
7725.564,14.55138
7752.563,14.45269
7779.563,14.33072
7806.562,14.23676
7833.561,14.10942
7860.56,13.92085
7887.559,13.66233
7914.558,13.36666
7941.557,13.00924
7968.556,12.5681
7995.555,12.08322
8022.554,11.51234
8049.553,10.85604
8076.552,10.1225
8103.551,9.319678
8130.55,8.405428
8157.548,7.466813
8184.547,6.548876
8211.546,6.054082
8238.545,6.087183
8265.544,6.265878
8292.543,6.805374
8319.542,7.479878
8346.541,8.214718
8373.54,9.177927
8400.539,9.778247
8427.538,9.696722
8454.537,10.50725
8481.536,11.26423
8508.535,11.87113
8535.534,12.08741
8562.533,11.26293
8589.532,12.32005
8616.531,13.85131
8643.53,14.85051
8670.529,15.46502
8697.528,16.01246
8724.527,16.56809
8751.525,17.13126
8778.524,17.54332
8805.523,17.77627
8832.522,17.91954
8859.521,17.97459
8886.521,18.02215
8913.52,17.97461
8940.519,17.95782
8967.518,17.97029
8994.517,18.02541
9021.516,18.09247
9048.515,18.13708
9075.514,18.19379
9102.513,18.20839
9129.512,18.22049
9156.511,18.17629
9183.51,18.15065
9210.509,18.09719
9237.508,18.06987
9264.507,18.00718
9291.506,17.95409
9318.504,18.02317
9345.503,17.99847
9372.502,17.9393
9399.501,17.86886
9426.5,17.74992
9453.499,17.60191
9480.498,17.48232
9507.497,17.4264
9534.496,17.3241
9561.495,17.22262
9588.494,17.11946
9615.493,17.1769
9642.492,17.35027
9669.491,17.61738
9696.49,17.84332
9723.489,18.04738
9750.488,18.24558
9777.487,18.36579
9804.486,18.35433
9831.485,18.39757
9858.484,18.59929
9885.482,18.83517
9912.481,19.02965
9939.48,19.18823
9966.479,19.3421
9993.479,19.44859
10020.48,19.5336
10047.48,19.67235
10074.48,19.72135
10101.47,19.78438
10128.47,19.83317
10155.47,19.85229
10182.47,19.87432
10209.47,19.92314
10236.47,19.87665
10263.47,19.93475
10290.47,19.88827
10317.47,19.85549
10344.47,19.8556
10371.46,19.8422
10398.46,19.83135
10425.46,19.79473
10452.46,19.65631
10479.46,19.61483
10506.46,19.4143
10533.46,19.13349
10560.46,18.8214
10587.46,18.39273
10614.46,17.88343
10641.45,17.19725
10668.45,16.51456
10695.45,15.92699
10722.45,15.81853
10749.45,15.93795
10776.45,16.25817
10803.45,16.80779
10830.45,17.36029
10857.45,17.81207
10884.45,18.34876
10911.44,18.78049
10938.44,19.33137
10965.44,19.64797
10992.44,19.93342
11019.44,20.12595
11046.44,20.27856
11073.44,20.40088
11100.44,20.4267
11127.44,20.41421
11154.43,20.60553
11181.43,20.68444
11208.43,20.95203
11235.43,21.08353
11262.43,21.19406
11289.43,21.25663
11316.43,21.41191
11343.43,21.60438
11370.43,21.4838
11397.43,21.60892
11424.42,21.77047
11451.42,21.8709
11478.42,21.82125
11505.42,21.86021
11532.42,22.14052
11559.42,22.13249
11586.42,22.08037
11613.42,22.15663
11640.42,22.21837
11667.42,22.20596
11694.41,22.16205
11721.41,22.12259
11748.41,22.26729
11775.41,22.2369
11802.41,22.03311
11829.41,22.1718
11856.41,22.15711
11883.41,22.38052
11910.41,22.27402
11937.41,22.38281
11964.4,22.49173
11991.4,22.28336
11999.12,22.31829