File: Data/NIR/H0007HDPE_6.csv
Wavenumber,Intensity
3999.706,1.670831
4026.705,1.627102
4053.704,1.631114
4080.703,1.617186
4107.702,1.596679
4134.701,1.607441
4161.7,1.603188
4188.699,1.614915
4215.698,1.64913
4242.697,1.65003
4269.696,1.688577
4296.694,1.722711
4323.693,1.627891
4350.692,1.70069
4377.691,1.776578
4404.69,1.908566
4431.689,2.102932
4458.688,2.339416
4485.688,2.614619
4512.687,2.940339
4539.686,3.272716
4566.685,3.656573
4593.683,3.891369
4620.682,4.010157
4647.681,4.081737
4674.68,3.950672
4701.679,4.1829
4728.678,4.004812
4755.677,3.858166
4782.676,3.585186
4809.675,3.446367
4836.674,3.21524
4863.673,2.957849
4890.672,3.009519
4917.671,3.056384
4944.67,3.020918
4971.669,2.793651
4998.668,3.018369
5025.667,3.136269
5052.666,3.151356
5079.665,3.09125
5106.664,3.05528
5133.663,3.121152
5160.662,3.022077
5187.661,3.006589
5214.66,3.025569
5241.659,3.078714
5268.658,3.110748
5295.657,3.082248
5322.656,3.172594
5349.655,2.999232
5376.654,2.782979
5403.652,2.642003
5430.651,2.421643
5457.65,2.385578
5484.649,2.291549
5511.648,2.307714
5538.647,2.305815
5565.646,2.325876
5592.646,2.474278
5619.645,2.306495
5646.644,2.103015
5673.643,1.958287
5700.642,2.171389
5727.641,2.080296
5754.639,1.904222
5781.638,1.823098
5808.637,1.916756
5835.636,2.084669
5862.635,2.767657
5889.634,4.242542
5916.633,5.186819
5943.632,6.125564
5970.631,7.195579
5997.63,8.304875
6024.629,9.162968
6051.628,9.769154
6078.627,10.16897
6105.626,10.4004
6132.625,10.63106
6159.624,10.81969
6186.623,11.00035
6213.622,11.11829
6240.621,11.20215
6267.62,11.22832
6294.619,11.24614
6321.618,11.23575
6348.617,11.08204
6375.616,10.77073
6402.615,10.58053
6429.614,10.22791
6456.613,9.707829
6483.612,8.269529
6510.61,8.972986
6537.609,9.314624
6564.608,9.511336
6591.607,9.671706
6618.606,9.666072
6645.605,9.551781
6672.604,9.351853
6699.604,9.064719
6726.603,8.682899
6753.602,8.359985
6780.601,7.92767
6807.6,7.21544
6834.599,6.496318
6861.598,6.187161
6888.597,5.788048
6915.596,5.44578
6942.594,4.841222
6969.593,4.722176
6996.592,4.617223
7023.591,4.326631
7050.59,4.281504
7077.589,4.510211
7104.588,5.098603
7131.587,5.592742
7158.586,4.518026
7185.585,4.166196
7212.584,5.952704
7239.583,7.427902
7266.582,8.764319
7293.581,9.971325
7320.58,11.02754
7347.579,11.65331
7374.578,12.03367
7401.577,12.22722
7428.576,12.32086
7455.575,12.40636
7482.574,12.44047
7509.573,12.40729
7536.572,12.33376
7563.571,12.23569
7590.57,12.12141
7617.569,11.96453
7644.568,11.76188
7671.566,11.59553
7698.565,11.47417
7725.564,11.35338
7752.563,11.24469
7779.563,11.08519
7806.562,10.98377
7833.561,10.82598
7860.56,10.6184
7887.559,10.32608
7914.558,10.00411
7941.557,9.622862
7968.556,9.164338
7995.555,8.644343
8022.554,8.051017
8049.553,7.371653
8076.552,6.607708
8103.551,5.80798
8130.55,4.909453
8157.548,4.025747
8184.547,3.227947
8211.546,2.847106
8238.545,2.856963
8265.544,2.997116
8292.543,3.410573
8319.542,3.979843
8346.541,4.633007
8373.54,5.482106
8400.539,6.037987
8427.538,5.9989
8454.537,6.782135
8481.536,7.519676
8508.535,8.114902
8535.534,8.319027
8562.533,7.554914
8589.532,8.572076
8616.531,10.04679
8643.53,11.01697
8670.529,11.60784
8697.528,12.12655
8724.527,12.71648
8751.525,13.24397
8778.524,13.617
8805.523,13.84196
8832.522,13.95548
8859.521,13.99881
8886.521,14.0226
8913.52,13.97994
8940.519,13.94596
8967.518,13.94865
8994.517,13.96841
9021.516,14.00667
9048.515,14.033
9075.514,14.06414
9102.513,14.06583
9129.512,14.05864
9156.511,14.00284
9183.51,13.94427
9210.509,13.88568
9237.508,13.83744
9264.507,13.77166
9291.506,13.70223
9318.504,13.73416
9345.503,13.70637
9372.502,13.63317
9399.501,13.51833
9426.5,13.41413
9453.499,13.27335
9480.498,13.1244
9507.497,13.06378
9534.496,12.95597
9561.495,12.86329
9588.494,12.75212
9615.493,12.79928
9642.492,12.92623
9669.491,13.1649
9696.49,13.34516
9723.489,13.53437
9750.488,13.70675
9777.487,13.76875
9804.486,13.74756
9831.485,13.76923
9858.484,13.95032
9885.482,14.15102
9912.481,14.31723
9939.48,14.46567
9966.479,14.608
9993.479,14.66287
10020.48,14.74148
10047.48,14.81304
10074.48,14.86737
10101.47,14.92618
10128.47,14.99052
10155.47,14.95554
10182.47,14.96455
10209.47,14.98893
10236.47,14.94095
10263.47,14.96405
10290.47,14.90985
10317.47,14.88265
10344.47,14.83722
10371.46,14.79933
10398.46,14.77577
10425.46,14.75583
10452.46,14.62707
10479.46,14.54009
10506.46,14.34123
10533.46,14.09959
10560.46,13.79355
10587.46,13.39794
10614.46,12.87178
10641.45,12.23322
10668.45,11.55346
10695.45,11.11639
10722.45,10.96633
10749.45,11.03766
10776.45,11.32367
10803.45,11.79855
10830.45,12.2149
10857.45,12.69966
10884.45,13.16736
10911.44,13.54457
10938.44,13.93941
10965.44,14.30441
10992.44,14.56739
11019.44,14.69853
11046.44,14.85361
11073.44,14.92292
11100.44,14.99375
11127.44,14.98714
11154.43,15.10964
11181.43,15.16665
11208.43,15.37083
11235.43,15.54709
11262.43,15.65038
11289.43,15.6363
11316.43,15.71072
11343.43,15.82619
11370.43,15.89192
11397.43,15.91727
11424.42,15.98004
11451.42,16.06585
11478.42,15.98338
11505.42,16.02329
11532.42,16.1941
11559.42,16.16165
11586.42,16.13228
11613.42,16.07129
11640.42,16.16973
11667.42,16.14275
11694.41,16.18617
11721.41,16.22956
11748.41,16.2392
11775.41,16.13333
11802.41,15.99793
11829.41,16.08398
11856.41,16.09197
11883.41,16.17653
11910.41,16.0522
11937.41,16.09123
11964.4,15.95042
11991.4,15.94493
11999.12,15.93723