File: Data/NIR/H0002LDPE_1.csv
Wavenumber,Intensity
3999.706,2.548316
4026.705,2.569179
4053.704,2.57971
4080.703,2.592913
4107.702,2.595837
4134.701,2.604193
4161.7,2.613631
4188.699,2.624279
4215.698,2.660111
4242.697,2.677673
4269.696,2.69495
4296.694,2.704902
4323.693,2.702076
4350.692,2.71236
4377.691,2.710265
4404.69,2.717912
4431.689,2.74992
4458.688,2.834769
4485.688,2.943983
4512.687,3.080828
4539.686,3.235353
4566.685,3.412409
4593.683,3.53249
4620.682,3.609464
4647.681,3.654865
4674.68,3.628535
4701.679,3.72007
4728.678,3.667526
4755.677,3.617409
4782.676,3.524976
4809.675,3.469824
4836.674,3.37296
4863.673,3.259437
4890.672,3.279271
4917.671,3.297984
4944.67,3.27823
4971.669,3.180044
4998.668,3.264981
5025.667,3.318887
5052.666,3.326262
5079.665,3.311308
5106.664,3.299133
5133.663,3.330102
5160.662,3.295413
5187.661,3.291734
5214.66,3.294104
5241.659,3.313741
5268.658,3.326049
5295.657,3.317816
5322.656,3.342102
5349.655,3.287517
5376.654,3.197674
5403.652,3.12574
5430.651,3.038868
5457.65,3.015879
5484.649,2.979734
5511.648,2.983148
5538.647,2.979257
5565.646,2.98915
5592.646,3.02915
5619.645,2.971313
5646.644,2.907849
5673.643,2.879337
5700.642,2.929128
5727.641,2.91892
5754.639,2.881319
5781.638,2.878291
5808.637,2.879726
5835.636,2.911237
5862.635,3.065729
5889.634,3.577632
5916.633,4.042993
5943.632,4.827571
5970.631,5.45827
5997.63,5.992368
6024.629,6.413255
6051.628,6.707778
6078.627,6.904742
6105.626,7.017875
6132.625,7.15273
6159.624,7.312685
6186.623,7.463507
6213.622,7.552605
6240.621,7.613255
6267.62,7.63838
6294.619,7.66298
6321.618,7.661078
6348.617,7.607383
6375.616,7.478981
6402.615,7.39253
6429.614,7.230262
6456.613,6.99055
6483.612,6.334828
6510.61,6.589194
6537.609,6.720484
6564.608,6.794415
6591.607,6.859895
6618.606,6.855281
6645.605,6.791896
6672.604,6.692545
6699.604,6.539351
6726.603,6.353642
6753.602,6.173049
6780.601,5.951118
6807.6,5.617221
6834.599,5.276547
6861.598,5.104542
6888.597,4.883186
6915.596,4.681673
6942.594,4.38271
6969.593,4.300218
6996.592,4.241577
7023.591,4.113397
7050.59,4.05559
7077.589,4.093622
7104.588,4.411724
7131.587,4.661124
7158.586,4.166591
7185.585,3.949012
7212.584,4.771108
7239.583,5.519739
7266.582,6.176496
7293.581,6.817467
7320.58,7.380019
7347.579,7.710556
7374.578,8.012433
7401.577,8.22415
7428.576,8.326065
7455.575,8.369151
7482.574,8.393586
7509.573,8.377265
7536.572,8.365847
7563.571,8.324048
7590.57,8.268151
7617.569,8.200514
7644.568,8.106512
7671.566,8.020539
7698.565,7.968296
7725.564,7.902131
7752.563,7.829664
7779.563,7.760681
7806.562,7.688994
7833.561,7.616379
7860.56,7.493669
7887.559,7.352723
7914.558,7.177586
7941.557,6.976994
7968.556,6.732388
7995.555,6.45677
8022.554,6.127529
8049.553,5.776622
8076.552,5.381594
8103.551,4.940213
8130.55,4.449373
8157.548,3.976781
8184.547,3.565752
8211.546,3.356537
8238.545,3.339908
8265.544,3.399802
8292.543,3.610228
8319.542,3.868879
8346.541,4.195251
8373.54,4.553293
8400.539,4.811203
8427.538,4.916404
8454.537,5.330659
8481.536,5.74226
8508.535,6.042409
8535.534,6.189315
8562.533,5.931111
8589.532,6.400944
8616.531,7.082472
8643.53,7.588679
8670.529,7.895761
8697.528,8.189667
8724.527,8.529392
8751.525,8.833115
8778.524,9.073227
8805.523,9.236635
8832.522,9.313937
8859.521,9.359225
8886.521,9.380645
8913.52,9.391319
8940.519,9.382144
8967.518,9.404347
8994.517,9.403012
9021.516,9.430717
9048.515,9.458497
9075.514,9.462036
9102.513,9.504374
9129.512,9.479793
9156.511,9.479455
9183.51,9.454024
9210.509,9.425488
9237.508,9.395623
9264.507,9.390695
9291.506,9.382471
9318.504,9.371187
9345.503,9.388425
9372.502,9.32912
9399.501,9.282666
9426.5,9.23055
9453.499,9.169957
9480.498,9.128879
9507.497,9.096886
9534.496,9.055923
9561.495,8.991022
9588.494,8.946471
9615.493,8.983313
9642.492,9.073034
9669.491,9.176982
9696.49,9.265141
9723.489,9.378776
9750.488,9.467205
9777.487,9.486314
9804.486,9.532613
9831.485,9.534279
9858.484,9.635276
9885.482,9.72331
9912.481,9.833455
9939.48,9.915734
9966.479,10.01375
9993.479,10.06318
10020.48,10.09036
10047.48,10.15941
10074.48,10.20374
10101.47,10.25848
10128.47,10.25961
10155.47,10.25798
10182.47,10.28129
10209.47,10.30567
10236.47,10.28771
10263.47,10.34359
10290.47,10.30667
10317.47,10.28514
10344.47,10.29968
10371.46,10.28425
10398.46,10.21912
10425.46,10.29108
10452.46,10.20364
10479.46,10.15025
10506.46,10.09977
10533.46,9.990065
10560.46,9.836752
10587.46,9.601746
10614.46,9.30772
10641.45,8.973346
10668.45,8.65291
10695.45,8.44591
10722.45,8.362229
10749.45,8.419466
10776.45,8.532522
10803.45,8.78017
10830.45,8.977142
10857.45,9.233883
10884.45,9.499561
10911.44,9.767514
10938.44,9.913182
10965.44,10.16006
10992.44,10.2484
11019.44,10.28087
11046.44,10.46382
11073.44,10.51748
11100.44,10.60299
11127.44,10.69095
11154.43,10.77801
11181.43,10.71007
11208.43,10.89082
11235.43,10.91673
11262.43,11.0696
11289.43,11.0679
11316.43,11.03255
11343.43,11.11363
11370.43,11.09529
11397.43,11.22376
11424.42,11.29257
11451.42,11.3005
11478.42,11.44383
11505.42,11.3771
11532.42,11.37671
11559.42,11.45834
11586.42,11.51016
11613.42,11.47462
11640.42,11.56056
11667.42,11.41685
11694.41,11.62425
11721.41,11.48618
11748.41,11.5624
11775.41,11.54808
11802.41,11.539
11829.41,11.51201
11856.41,11.36108
11883.41,11.44474
11910.41,11.46545
11937.41,11.39002
11964.4,11.50207
11991.4,11.49061
11999.12,11.47747