File: Data/NIR/H0008HDPE_4.csv
Wavenumber,Intensity
3999.706,3.068518
4026.705,3.046258
4053.704,3.054623
4080.703,3.048398
4107.702,3.037995
4134.701,3.047909
4161.7,3.047655
4188.699,3.071506
4215.698,3.115194
4242.697,3.128736
4269.696,3.166452
4296.694,3.200502
4323.693,3.093517
4350.692,3.183293
4377.691,3.250629
4404.69,3.426252
4431.689,3.681767
4458.688,3.941237
4485.688,4.194202
4512.687,4.517881
4539.686,4.817977
4566.685,5.164145
4593.683,5.364254
4620.682,5.478792
4647.681,5.549466
4674.68,5.454057
4701.679,5.648365
4728.678,5.501568
4755.677,5.438821
4782.676,5.220276
4809.675,5.115423
4836.674,4.922848
4863.673,4.697877
4890.672,4.760255
4917.671,4.814834
4944.67,4.790279
4971.669,4.587351
4998.668,4.811931
5025.667,4.933303
5052.666,4.957488
5079.665,4.909073
5106.664,4.884103
5133.663,4.961365
5160.662,4.870903
5187.661,4.863636
5214.66,4.890663
5241.659,4.947805
5268.658,4.989074
5295.657,4.968252
5322.656,5.066982
5349.655,4.900429
5376.654,4.692697
5403.652,4.548685
5430.651,4.305817
5457.65,4.269769
5484.649,4.147832
5511.648,4.182359
5538.647,4.185895
5565.646,4.213844
5592.646,4.417752
5619.645,4.204264
5646.644,3.908264
5673.643,3.650113
5700.642,4.028962
5727.641,3.866742
5754.639,3.553881
5781.638,3.413167
5808.637,3.586004
5835.636,3.895979
5862.635,4.895497
5889.634,6.377185
5916.633,7.198813
5943.632,7.873315
5970.631,8.805973
5997.63,9.800023
6024.629,10.56076
6051.628,11.10529
6078.627,11.44515
6105.626,11.32398
6132.625,11.77359
6159.624,12.08349
6186.623,12.28984
6213.622,12.41333
6240.621,12.51697
6267.62,12.5575
6294.619,12.60002
6321.618,12.6151
6348.617,12.48694
6375.616,12.224
6402.615,12.06709
6429.614,11.76607
6456.613,11.30591
6483.612,10.00591
6510.61,10.69252
6537.609,11.01833
6564.608,11.22307
6591.607,11.40711
6618.606,11.42234
6645.605,11.34001
6672.604,11.17318
6699.604,10.9315
6726.603,10.59886
6753.602,10.31893
6780.601,9.938446
6807.6,9.291678
6834.599,8.636772
6861.598,8.367825
6888.597,8.004248
6915.596,7.704947
6942.594,7.131901
6969.593,7.03401
6996.592,6.928089
7023.591,6.644641
7050.59,6.616884
7077.589,6.857905
7104.588,7.43718
7131.587,7.928469
7158.586,6.889603
7185.585,6.544822
7212.584,8.359993
7239.583,9.802015
7266.582,11.12032
7293.581,12.29473
7320.58,13.31322
7347.579,13.96349
7374.578,14.27979
7401.577,14.44645
7428.576,14.55611
7455.575,14.66019
7482.574,14.70955
7509.573,14.68373
7536.572,14.6476
7563.571,14.56599
7590.57,14.47905
7617.569,14.34462
7644.568,14.16101
7671.566,14.01158
7698.565,13.92553
7725.564,13.81705
7752.563,13.73337
7779.563,13.59913
7806.562,13.52318
7833.561,13.38379
7860.56,13.19544
7887.559,12.93742
7914.558,12.64027
7941.557,12.27155
7968.556,11.83925
7995.555,11.34702
8022.554,10.76943
8049.553,10.10362
8076.552,9.356531
8103.551,8.549948
8130.55,7.618079
8157.548,6.670598
8184.547,5.742832
8211.546,5.250639
8238.545,5.276536
8265.544,5.457073
8292.543,6.010399
8319.542,6.706162
8346.541,7.455158
8373.54,8.417463
8400.539,9.028177
8427.538,8.949463
8454.537,9.770406
8481.536,10.54617
8508.535,11.16201
8535.534,11.37643
8562.533,10.54276
8589.532,11.61772
8616.531,13.1893
8643.53,14.21513
8670.529,14.85093
8697.528,15.41209
8724.527,15.99013
8751.525,16.54663
8778.524,16.97206
8805.523,17.22021
8832.522,17.36014
8859.521,17.43304
8886.521,17.46302
8913.52,17.43963
8940.519,17.42106
8967.518,17.42943
8994.517,17.49385
9021.516,17.54375
9048.515,17.60384
9075.514,17.65205
9102.513,17.67068
9129.512,17.67895
9156.511,17.65035
9183.51,17.62566
9210.509,17.57498
9237.508,17.53798
9264.507,17.49565
9291.506,17.46173
9318.504,17.50217
9345.503,17.48158
9372.502,17.40777
9399.501,17.33779
9426.5,17.23901
9453.499,17.07576
9480.498,16.96204
9507.497,16.8876
9534.496,16.78644
9561.495,16.69954
9588.494,16.59634
9615.493,16.66749
9642.492,16.8548
9669.491,17.10961
9696.49,17.3157
9723.489,17.56408
9750.488,17.75732
9777.487,17.86745
9804.486,17.87313
9831.485,17.93975
9858.484,18.14037
9885.482,18.35654
9912.481,18.58064
9939.48,18.75084
9966.479,18.87641
9993.479,19.00225
10020.48,19.09487
10047.48,19.19653
10074.48,19.30186
10101.47,19.34898
10128.47,19.44166
10155.47,19.41841
10182.47,19.4607
10209.47,19.46144
10236.47,19.50157
10263.47,19.51271
10290.47,19.48225
10317.47,19.41225
10344.47,19.43659
10371.46,19.41679
10398.46,19.4015
10425.46,19.38189
10452.46,19.27323
10479.46,19.17819
10506.46,18.97839
10533.46,18.69538
10560.46,18.38069
10587.46,17.97692
10614.46,17.41334
10641.45,16.68418
10668.45,16.03096
10695.45,15.47683
10722.45,15.2906
10749.45,15.4566
10776.45,15.73585
10803.45,16.33446
10830.45,16.85613
10857.45,17.322
10884.45,17.89921
10911.44,18.40041
10938.44,18.84837
10965.44,19.23465
10992.44,19.55986
11019.44,19.68226
11046.44,19.88058
11073.44,20.03763
11100.44,20.0617
11127.44,20.08453
11154.43,20.2548
11181.43,20.3103
11208.43,20.60219
11235.43,20.68136
11262.43,20.90313
11289.43,20.94113
11316.43,21.00387
11343.43,21.19688
11370.43,21.18306
11397.43,21.23087
11424.42,21.40744
11451.42,21.3599
11478.42,21.42416
11505.42,21.53045
11532.42,21.65042
11559.42,21.82263
11586.42,21.67596
11613.42,21.73041
11640.42,21.89642
11667.42,21.85951
11694.41,21.80239
11721.41,21.87458
11748.41,21.79726
11775.41,21.78336
11802.41,21.79988
11829.41,21.81103
11856.41,21.83322
11883.41,21.99748
11910.41,21.92371
11937.41,22.02148
11964.4,21.93221
11991.4,22.03413
11999.12,21.80743