File: Data/NIR/H0008HDPE_1.csv
Wavenumber,Intensity
3999.706,2.864477
4026.705,2.853944
4053.704,2.863902
4080.703,2.859281
4107.702,2.856287
4134.701,2.860296
4161.7,2.871346
4188.699,2.887018
4215.698,2.929713
4242.697,2.945749
4269.696,2.974937
4296.694,2.998129
4323.693,2.939396
4350.692,2.98973
4377.691,3.041573
4404.69,3.18164
4431.689,3.392091
4458.688,3.614412
4485.688,3.831846
4512.687,4.12342
4539.686,4.399787
4566.685,4.72296
4593.683,4.906735
4620.682,5.018081
4647.681,5.080871
4674.68,4.995754
4701.679,5.169169
4728.678,5.039906
4755.677,4.975973
4782.676,4.778536
4809.675,4.681036
4836.674,4.50626
4863.673,4.299939
4890.672,4.358383
4917.671,4.40834
4944.67,4.382389
4971.669,4.200288
4998.668,4.398211
5025.667,4.513908
5052.666,4.533442
5079.665,4.491971
5106.664,4.471334
5133.663,4.538555
5160.662,4.459598
5187.661,4.455049
5214.66,4.474999
5241.659,4.535928
5268.658,4.563022
5295.657,4.547928
5322.656,4.634804
5349.655,4.484996
5376.654,4.292126
5403.652,4.170456
5430.651,3.945406
5457.65,3.92489
5484.649,3.81966
5511.648,3.84659
5538.647,3.847606
5565.646,3.871389
5592.646,4.050056
5619.645,3.862274
5646.644,3.609058
5673.643,3.389364
5700.642,3.712653
5727.641,3.577679
5754.639,3.310191
5781.638,3.189116
5808.637,3.336823
5835.636,3.599188
5862.635,4.472086
5889.634,5.853717
5916.633,6.623955
5943.632,7.257835
5970.631,8.137755
5997.63,9.071314
6024.629,9.794452
6051.628,10.31038
6078.627,10.62394
6105.626,10.50962
6132.625,10.93432
6159.624,11.22494
6186.623,11.42196
6213.622,11.54099
6240.621,11.64091
6267.62,11.67443
6294.619,11.71029
6321.618,11.7201
6348.617,11.60446
6375.616,11.36158
6402.615,11.21101
6429.614,10.92756
6456.613,10.50165
6483.612,9.27202
6510.61,9.917013
6537.609,10.22703
6564.608,10.41594
6591.607,10.58593
6618.606,10.60064
6645.605,10.5245
6672.604,10.37318
6699.604,10.14351
6726.603,9.821975
6753.602,9.560802
6780.601,9.199505
6807.6,8.591754
6834.599,7.95715
6861.598,7.704833
6888.597,7.37378
6915.596,7.086974
6942.594,6.547744
6969.593,6.455581
6996.592,6.35694
7023.591,6.084678
7050.59,6.071763
7077.589,6.282299
7104.588,6.836133
7131.587,7.298708
7158.586,6.335811
7185.585,5.996984
7212.584,7.699981
7239.583,9.083738
7266.582,10.31082
7293.581,11.41618
7320.58,12.39712
7347.579,12.9962
7374.578,13.30656
7401.577,13.45656
7428.576,13.56422
7455.575,13.65292
7482.574,13.70515
7509.573,13.67107
7536.572,13.652
7563.571,13.57937
7590.57,13.49105
7617.569,13.36327
7644.568,13.18993
7671.566,13.04728
7698.565,12.96675
7725.564,12.86358
7752.563,12.77726
7779.563,12.65409
7806.562,12.57466
7833.561,12.4486
7860.56,12.27221
7887.559,12.0113
7914.558,11.73445
7941.557,11.38495
7968.556,10.97222
7995.555,10.51197
8022.554,9.956125
8049.553,9.32576
8076.552,8.617108
8103.551,7.854544
8130.55,6.988262
8157.548,6.091908
8184.547,5.246936
8211.546,4.77232
8238.545,4.806763
8265.544,4.966096
8292.543,5.476947
8319.542,6.114232
8346.541,6.813428
8373.54,7.710036
8400.539,8.273098
8427.538,8.20499
8454.537,8.991971
8481.536,9.729522
8508.535,10.29292
8535.534,10.52258
8562.533,9.720505
8589.532,10.76575
8616.531,12.26276
8643.53,13.21995
8670.529,13.7966
8697.528,14.34655
8724.527,14.88881
8751.525,15.426
8778.524,15.81308
8805.523,16.04834
8832.522,16.17569
8859.521,16.24293
8886.521,16.25758
8913.52,16.25624
8940.519,16.20724
8967.518,16.23685
8994.517,16.26928
9021.516,16.34135
9048.515,16.40075
9075.514,16.42761
9102.513,16.46664
9129.512,16.45322
9156.511,16.44556
9183.51,16.39456
9210.509,16.33649
9237.508,16.30041
9264.507,16.28554
9291.506,16.24867
9318.504,16.27863
9345.503,16.26587
9372.502,16.18668
9399.501,16.08172
9426.5,15.99756
9453.499,15.8595
9480.498,15.74978
9507.497,15.66834
9534.496,15.59302
9561.495,15.47894
9588.494,15.41207
9615.493,15.46585
9642.492,15.63209
9669.491,15.86685
9696.49,16.08768
9723.489,16.30481
9750.488,16.5306
9777.487,16.58603
9804.486,16.62764
9831.485,16.65467
9858.484,16.85158
9885.482,17.08317
9912.481,17.25889
9939.48,17.46517
9966.479,17.60155
9993.479,17.71437
10020.48,17.78095
10047.48,17.87124
10074.48,17.99367
10101.47,18.07222
10128.47,18.11424
10155.47,18.10676
10182.47,18.14638
10209.47,18.12666
10236.47,18.13061
10263.47,18.15006
10290.47,18.1037
10317.47,18.08336
10344.47,18.07338
10371.46,18.08876
10398.46,17.99824
10425.46,18.00712
10452.46,17.92206
10479.46,17.80769
10506.46,17.65277
10533.46,17.42894
10560.46,17.06442
10587.46,16.65514
10614.46,16.0901
10641.45,15.50042
10668.45,14.78281
10695.45,14.31395
10722.45,14.11791
10749.45,14.22461
10776.45,14.56558
10803.45,15.07301
10830.45,15.58306
10857.45,16.09848
10884.45,16.61928
10911.44,17.07574
10938.44,17.44106
10965.44,17.84994
10992.44,18.13457
11019.44,18.31375
11046.44,18.40902
11073.44,18.5997
11100.44,18.62327
11127.44,18.69582
11154.43,18.75183
11181.43,18.85762
11208.43,19.12298
11235.43,19.26939
11262.43,19.40586
11289.43,19.46907
11316.43,19.5263
11343.43,19.66452
11370.43,19.63203
11397.43,19.76465
11424.42,19.82989
11451.42,19.98174
11478.42,20.07174
11505.42,20.03264
11532.42,20.05338
11559.42,20.25279
11586.42,20.24686
11613.42,20.27221
11640.42,20.38033
11667.42,20.08869
11694.41,20.33969
11721.41,20.36872
11748.41,20.33457
11775.41,20.27508
11802.41,20.35867
11829.41,20.28718
11856.41,20.4012
11883.41,20.53395
11910.41,20.6009
11937.41,20.64119
11964.4,20.62711
11991.4,20.64914
11999.12,20.78157