File: Data/NIR/H0002LDPE_2.csv
Wavenumber,Intensity
3999.706,2.629323
4026.705,2.647147
4053.704,2.657434
4080.703,2.66915
4107.702,2.671588
4134.701,2.675982
4161.7,2.687539
4188.699,2.697735
4215.698,2.731886
4242.697,2.752897
4269.696,2.767204
4296.694,2.780875
4323.693,2.764567
4350.692,2.78056
4377.691,2.788291
4404.69,2.797861
4431.689,2.871901
4458.688,3.051803
4485.688,3.265677
4512.687,3.510391
4539.686,3.766274
4566.685,4.051736
4593.683,4.236583
4620.682,4.351664
4647.681,4.415681
4674.68,4.375128
4701.679,4.504168
4728.678,4.414582
4755.677,4.334255
4782.676,4.182853
4809.675,4.09057
4836.674,3.919654
4863.673,3.725461
4890.672,3.756945
4917.671,3.789992
4944.67,3.755003
4971.669,3.57693
4998.668,3.731823
5025.667,3.817126
5052.666,3.830552
5079.665,3.800141
5106.664,3.776297
5133.663,3.822434
5160.662,3.764317
5187.661,3.750778
5214.66,3.754442
5241.659,3.793123
5268.658,3.802398
5295.657,3.786585
5322.656,3.828237
5349.655,3.726754
5376.654,3.566976
5403.652,3.434621
5430.651,3.265217
5457.65,3.230979
5484.649,3.158279
5511.648,3.160901
5538.647,3.155119
5565.646,3.168139
5592.646,3.254097
5619.645,3.141113
5646.644,3.008161
5673.643,2.949237
5700.642,3.04416
5727.641,3.02633
5754.639,2.944422
5781.638,2.935647
5808.637,2.94311
5835.636,2.996418
5862.635,3.294527
5889.634,4.177929
5916.633,4.905473
5943.632,6.047001
5970.631,6.905817
5997.63,7.608066
6024.629,8.136223
6051.628,8.500385
6078.627,8.737327
6105.626,8.880416
6132.625,9.040131
6159.624,9.235566
6186.623,9.4152
6213.622,9.519551
6240.621,9.586329
6267.62,9.617975
6294.619,9.640011
6321.618,9.643591
6348.617,9.576503
6375.616,9.421463
6402.615,9.316552
6429.614,9.121618
6456.613,8.83145
6483.612,8.009994
6510.61,8.326314
6537.609,8.489356
6564.608,8.579575
6591.607,8.66334
6618.606,8.650996
6645.605,8.573273
6672.604,8.444489
6699.604,8.256775
6726.603,8.021741
6753.602,7.794882
6780.601,7.509821
6807.6,7.074009
6834.599,6.619241
6861.598,6.383374
6888.597,6.077563
6915.596,5.801235
6942.594,5.376817
6969.593,5.255942
6996.592,5.170473
7023.591,4.973384
7050.59,4.881457
7077.589,4.956175
7104.588,5.416041
7131.587,5.773004
7158.586,5.06611
7185.585,4.72677
7212.584,5.918744
7239.583,6.92887
7266.582,7.765351
7293.581,8.57152
7320.58,9.253041
7347.579,9.639547
7374.578,9.993072
7401.577,10.23243
7428.576,10.33927
7455.575,10.39325
7482.574,10.41917
7509.573,10.39998
7536.572,10.37774
7563.571,10.33084
7590.57,10.26091
7617.569,10.18527
7644.568,10.06324
7671.566,9.970943
7698.565,9.909558
7725.564,9.828425
7752.563,9.750469
7779.563,9.66213
7806.562,9.580989
7833.561,9.485634
7860.56,9.349089
7887.559,9.175229
7914.558,8.970815
7941.557,8.720715
7968.556,8.425637
7995.555,8.079762
8022.554,7.674222
8049.553,7.207514
8076.552,6.681005
8103.551,6.09999
8130.55,5.41612
8157.548,4.710746
8184.547,4.064455
8211.546,3.714677
8238.545,3.69874
8265.544,3.791933
8292.543,4.11321
8319.542,4.531773
8346.541,5.012321
8373.54,5.531416
8400.539,5.898561
8427.538,6.03495
8454.537,6.605919
8481.536,7.125274
8508.535,7.532185
8535.534,7.72845
8562.533,7.386317
8589.532,7.989386
8616.531,8.804449
8643.53,9.421102
8670.529,9.773973
8697.528,10.10932
8724.527,10.49981
8751.525,10.86195
8778.524,11.11779
8805.523,11.29798
8832.522,11.39069
8859.521,11.44078
8886.521,11.45602
8913.52,11.45939
8940.519,11.45681
8967.518,11.46861
8994.517,11.48308
9021.516,11.51385
9048.515,11.53262
9075.514,11.52615
9102.513,11.57545
9129.512,11.54393
9156.511,11.54463
9183.51,11.5146
9210.509,11.49028
9237.508,11.43966
9264.507,11.42577
9291.506,11.42291
9318.504,11.40348
9345.503,11.40375
9372.502,11.34543
9399.501,11.30278
9426.5,11.24326
9453.499,11.1787
9480.498,11.12678
9507.497,11.09956
9534.496,11.04148
9561.495,10.98858
9588.494,10.94185
9615.493,10.94214
9642.492,11.05108
9669.491,11.1711
9696.49,11.25825
9723.489,11.37724
9750.488,11.50225
9777.487,11.5249
9804.486,11.55548
9831.485,11.58985
9858.484,11.65535
9885.482,11.80226
9912.481,11.87382
9939.48,11.99364
9966.479,12.06488
9993.479,12.12264
10020.48,12.15935
10047.48,12.21622
10074.48,12.274
10101.47,12.33391
10128.47,12.34501
10155.47,12.34756
10182.47,12.38449
10209.47,12.40733
10236.47,12.39242
10263.47,12.38941
10290.47,12.36419
10317.47,12.33785
10344.47,12.33778
10371.46,12.34175
10398.46,12.31324
10425.46,12.3198
10452.46,12.20723
10479.46,12.19306
10506.46,12.10218
10533.46,11.97131
10560.46,11.80249
10587.46,11.57572
10614.46,11.25719
10641.45,10.90422
10668.45,10.53767
10695.45,10.20902
10722.45,10.13764
10749.45,10.18425
10776.45,10.40599
10803.45,10.61174
10830.45,10.83165
10857.45,11.14125
10884.45,11.44361
10911.44,11.67766
10938.44,11.88008
10965.44,12.08418
10992.44,12.26389
11019.44,12.36997
11046.44,12.46771
11073.44,12.66618
11100.44,12.62992
11127.44,12.70776
11154.43,12.75738
11181.43,12.76985
11208.43,12.92821
11235.43,12.96601
11262.43,13.09211
11289.43,13.11547
11316.43,13.1206
11343.43,13.20215
11370.43,13.13471
11397.43,13.30283
11424.42,13.30949
11451.42,13.46048
11478.42,13.49164
11505.42,13.40814
11532.42,13.49094
11559.42,13.5773
11586.42,13.57336
11613.42,13.53675
11640.42,13.51147
11667.42,13.51854
11694.41,13.51824
11721.41,13.4873
11748.41,13.62918
11775.41,13.63559
11802.41,13.5082
11829.41,13.43693
11856.41,13.28212
11883.41,13.3289
11910.41,13.28335
11937.41,13.2844
11964.4,13.08833
11991.4,13.08594
11999.12,13.16562