File: Data/NIR/H0002LDPE_6.csv
Wavenumber,Intensity
3999.706,1.449304
4026.705,1.453267
4053.704,1.461743
4080.703,1.470512
4107.702,1.469877
4134.701,1.475646
4161.7,1.476412
4188.699,1.487628
4215.698,1.498552
4242.697,1.505314
4269.696,1.512943
4296.694,1.516534
4323.693,1.515232
4350.692,1.517231
4377.691,1.51986
4404.69,1.5251
4431.689,1.55955
4458.688,1.650137
4485.688,1.770777
4512.687,1.917936
4539.686,2.080541
4566.685,2.256411
4593.683,2.378283
4620.682,2.456524
4647.681,2.500212
4674.68,2.46632
4701.679,2.556778
4728.678,2.487452
4755.677,2.429674
4782.676,2.324277
4809.675,2.259766
4836.674,2.149944
4863.673,2.02774
4890.672,2.0434
4917.671,2.064567
4944.67,2.046052
4971.669,1.933636
4998.668,2.0342
5025.667,2.086811
5052.666,2.094238
5079.665,2.072159
5106.664,2.057098
5133.663,2.087307
5160.662,2.048624
5187.661,2.039403
5214.66,2.047851
5241.659,2.066532
5268.658,2.079067
5295.657,2.06843
5322.656,2.096145
5349.655,2.032259
5376.654,1.935392
5403.652,1.859236
5430.651,1.766085
5457.65,1.745891
5484.649,1.708993
5511.648,1.707451
5538.647,1.707704
5565.646,1.713405
5592.646,1.761289
5619.645,1.701696
5646.644,1.642363
5673.643,1.612174
5700.642,1.656334
5727.641,1.649711
5754.639,1.609655
5781.638,1.609226
5808.637,1.609769
5835.636,1.639175
5862.635,1.798926
5889.634,2.348327
5916.633,2.864748
5943.632,3.745412
5970.631,4.456862
5997.63,5.070722
6024.629,5.536426
6051.628,5.872168
6078.627,6.096774
6105.626,6.231524
6132.625,6.378955
6159.624,6.562937
6186.623,6.725237
6213.622,6.82384
6240.621,6.893772
6267.62,6.929749
6294.619,6.953609
6321.618,6.957535
6348.617,6.895358
6375.616,6.749099
6402.615,6.659064
6429.614,6.473942
6456.613,6.202621
6483.612,5.459999
6510.61,5.75139
6537.609,5.906349
6564.608,5.989758
6591.607,6.065742
6618.606,6.060221
6645.605,5.992764
6672.604,5.874635
6699.604,5.705748
6726.603,5.500821
6753.602,5.298573
6780.601,5.048435
6807.6,4.664209
6834.599,4.287841
6861.598,4.090326
6888.597,3.839402
6915.596,3.612618
6942.594,3.280354
6969.593,3.186754
6996.592,3.131043
7023.591,2.985505
7050.59,2.920439
7077.589,2.983067
7104.588,3.335284
7131.587,3.631625
7158.586,3.060633
7185.585,2.818526
7212.584,3.754857
7239.583,4.599793
7266.582,5.354497
7293.581,6.07712
7320.58,6.725101
7347.579,7.0848
7374.578,7.422338
7401.577,7.670446
7428.576,7.769702
7455.575,7.826797
7482.574,7.850709
7509.573,7.857112
7536.572,7.832266
7563.571,7.787328
7590.57,7.736581
7617.569,7.657374
7644.568,7.560285
7671.566,7.473237
7698.565,7.405105
7725.564,7.346026
7752.563,7.280754
7779.563,7.192126
7806.562,7.123701
7833.561,7.041959
7860.56,6.922312
7887.559,6.767514
7914.558,6.572487
7941.557,6.349732
7968.556,6.070084
7995.555,5.762221
8022.554,5.399742
8049.553,4.991791
8076.552,4.544961
8103.551,4.037455
8130.55,3.476044
8157.548,2.93078
8184.547,2.43164
8211.546,2.206879
8238.545,2.195447
8265.544,2.279898
8292.543,2.499862
8319.542,2.828962
8346.541,3.209172
8373.54,3.629957
8400.539,3.953681
8427.538,4.0601
8454.537,4.542917
8481.536,5.005863
8508.535,5.381317
8535.534,5.555334
8562.533,5.262013
8589.532,5.801602
8616.531,6.56292
8643.53,7.147557
8670.529,7.504454
8697.528,7.814489
8724.527,8.197392
8751.525,8.551236
8778.524,8.798985
8805.523,8.964161
8832.522,9.082939
8859.521,9.120061
8886.521,9.154145
8913.52,9.160868
8940.519,9.17096
8967.518,9.172096
8994.517,9.192523
9021.516,9.222512
9048.515,9.260536
9075.514,9.270063
9102.513,9.280966
9129.512,9.289041
9156.511,9.256875
9183.51,9.249261
9210.509,9.229515
9237.508,9.214664
9264.507,9.164501
9291.506,9.141672
9318.504,9.176515
9345.503,9.169773
9372.502,9.133417
9399.501,9.076795
9426.5,9.054787
9453.499,8.971782
9480.498,8.908567
9507.497,8.878782
9534.496,8.831551
9561.495,8.775586
9588.494,8.74572
9615.493,8.753853
9642.492,8.855458
9669.491,8.968108
9696.49,9.076553
9723.489,9.185637
9750.488,9.279015
9777.487,9.348022
9804.486,9.331691
9831.485,9.35113
9858.484,9.4691
9885.482,9.545939
9912.481,9.679043
9939.48,9.7561
9966.479,9.837574
9993.479,9.88071
10020.48,9.950109
10047.48,9.982152
10074.48,10.03603
10101.47,10.04951
10128.47,10.10283
10155.47,10.09808
10182.47,10.12741
10209.47,10.15055
10236.47,10.1255
10263.47,10.18622
10290.47,10.16581
10317.47,10.11689
10344.47,10.13366
10371.46,10.10027
10398.46,10.0827
10425.46,10.05578
10452.46,10.01159
10479.46,9.973244
10506.46,9.857512
10533.46,9.747066
10560.46,9.609715
10587.46,9.386863
10614.46,9.132786
10641.45,8.716653
10668.45,8.339723
10695.45,8.101933
10722.45,8.006663
10749.45,8.048962
10776.45,8.170562
10803.45,8.479675
10830.45,8.698305
10857.45,8.947729
10884.45,9.197591
10911.44,9.472136
10938.44,9.678897
10965.44,9.840246
10992.44,9.995062
11019.44,10.14506
11046.44,10.16749
11073.44,10.27289
11100.44,10.3553
11127.44,10.38912
11154.43,10.49161
11181.43,10.45343
11208.43,10.61306
11235.43,10.72768
11262.43,10.83021
11289.43,10.64575
11316.43,10.87086
11343.43,10.85743
11370.43,10.95406
11397.43,10.89929
11424.42,11.0847
11451.42,11.06212
11478.42,10.99529
11505.42,11.00559
11532.42,11.18797
11559.42,11.15031
11586.42,11.00841
11613.42,11.10921
11640.42,11.20469
11667.42,11.21401
11694.41,11.10046
11721.41,11.1883
11748.41,11.28792
11775.41,11.2147
11802.41,11.145
11829.41,11.29188
11856.41,11.27281
11883.41,11.25599
11910.41,11.23798
11937.41,11.24075
11964.4,11.28734
11991.4,11.0438
11999.12,11.16581