File: Data/NIR/H0003LDPE_6.csv
Wavenumber,Intensity
3999.706,3.228256
4026.705,3.238801
4053.704,3.258042
4080.703,3.269039
4107.702,3.269622
4134.701,3.280521
4161.7,3.287066
4188.699,3.311923
4215.698,3.343196
4242.697,3.360979
4269.696,3.382503
4296.694,3.403762
4323.693,3.377039
4350.692,3.401379
4377.691,3.417244
4404.69,3.430597
4431.689,3.485682
4458.688,3.630809
4485.688,3.807272
4512.687,4.022515
4539.686,4.255932
4566.685,4.527319
4593.683,4.71534
4620.682,4.834557
4647.681,4.900759
4674.68,4.863822
4701.679,4.990641
4728.678,4.905553
4755.677,4.832397
4782.676,4.695555
4809.675,4.608108
4836.674,4.450982
4863.673,4.276328
4890.672,4.296944
4917.671,4.325624
4944.67,4.299069
4971.669,4.133073
4998.668,4.270861
5025.667,4.344716
5052.666,4.365149
5079.665,4.336165
5106.664,4.321696
5133.663,4.361127
5160.662,4.312578
5187.661,4.298528
5214.66,4.305609
5241.659,4.33448
5268.658,4.343279
5295.657,4.332994
5322.656,4.369529
5349.655,4.283061
5376.654,4.14823
5403.652,4.026017
5430.651,3.894697
5457.65,3.859382
5484.649,3.804125
5511.648,3.804682
5538.647,3.800249
5565.646,3.814555
5592.646,3.876652
5619.645,3.795569
5646.644,3.700382
5673.643,3.657028
5700.642,3.717249
5727.641,3.722897
5754.639,3.659299
5781.638,3.643995
5808.637,3.653627
5835.636,3.699575
5862.635,3.902939
5889.634,4.649237
5916.633,5.366696
5943.632,6.690262
5970.631,7.676286
5997.63,8.471326
6024.629,9.070751
6051.628,9.497856
6078.627,9.794362
6105.626,9.969893
6132.625,10.17321
6159.624,10.42405
6186.623,10.63741
6213.622,10.7755
6240.621,10.86566
6267.62,10.91168
6294.619,10.94807
6321.618,10.95239
6348.617,10.87731
6375.616,10.70017
6402.615,10.58505
6429.614,10.35795
6456.613,10.02147
6483.612,9.088316
6510.61,9.418211
6537.609,9.602602
6564.608,9.695972
6591.607,9.784602
6618.606,9.770566
6645.605,9.673874
6672.604,9.524075
6699.604,9.30158
6726.603,9.034985
6753.602,8.767111
6780.601,8.435384
6807.6,7.942441
6834.599,7.44624
6861.598,7.172887
6888.597,6.828105
6915.596,6.514019
6942.594,6.062011
6969.593,5.917109
6996.592,5.833533
7023.591,5.633423
7050.59,5.532417
7077.589,5.604164
7104.588,6.087417
7131.587,6.462207
7158.586,5.707204
7185.585,5.351408
7212.584,6.586962
7239.583,7.697248
7266.582,8.675347
7293.581,9.616697
7320.58,10.44211
7347.579,10.89264
7374.578,11.36035
7401.577,11.68195
7428.576,11.81325
7455.575,11.89491
7482.574,11.92358
7509.573,11.91596
7536.572,11.88635
7563.571,11.81932
7590.57,11.7459
7617.569,11.65605
7644.568,11.51588
7671.566,11.39664
7698.565,11.30563
7725.564,11.21781
7752.563,11.1232
7779.563,11.00735
7806.562,10.90988
7833.561,10.79084
7860.56,10.63106
7887.559,10.42318
7914.558,10.17524
7941.557,9.879858
7968.556,9.521521
7995.555,9.11749
8022.554,8.646957
8049.553,8.111588
8076.552,7.514451
8103.551,6.848831
8130.55,6.101439
8157.548,5.364489
8184.547,4.727509
8211.546,4.417275
8238.545,4.392034
8265.544,4.485826
8292.543,4.763088
8319.542,5.167917
8346.541,5.645638
8373.54,6.151891
8400.539,6.540397
8427.538,6.718995
8454.537,7.346233
8481.536,7.937093
8508.535,8.405706
8535.534,8.633186
8562.533,8.296388
8589.532,8.929254
8616.531,9.847469
8643.53,10.56573
8670.529,10.99472
8697.528,11.36027
8724.527,11.84209
8751.525,12.30232
8778.524,12.59861
8805.523,12.80964
8832.522,12.92154
8859.521,12.9849
8886.521,13.0112
8913.52,13.02007
8940.519,13.00704
8967.518,13.00888
8994.517,13.03409
9021.516,13.03532
9048.515,13.06697
9075.514,13.08534
9102.513,13.08156
9129.512,13.07251
9156.511,13.04119
9183.51,13.02763
9210.509,12.97526
9237.508,12.92135
9264.507,12.86986
9291.506,12.83263
9318.504,12.85424
9345.503,12.82281
9372.502,12.79012
9399.501,12.70904
9426.5,12.63239
9453.499,12.54307
9480.498,12.46609
9507.497,12.41483
9534.496,12.3527
9561.495,12.27564
9588.494,12.22409
9615.493,12.23589
9642.492,12.32811
9669.491,12.47841
9696.49,12.57011
9723.489,12.69099
9750.488,12.79446
9777.487,12.83272
9804.486,12.82258
9831.485,12.86011
9858.484,12.96769
9885.482,13.08029
9912.481,13.20212
9939.48,13.29194
9966.479,13.39275
9993.479,13.44129
10020.48,13.51486
10047.48,13.55997
10074.48,13.5516
10101.47,13.63466
10128.47,13.67583
10155.47,13.64326
10182.47,13.66271
10209.47,13.67348
10236.47,13.6747
10263.47,13.68416
10290.47,13.64605
10317.47,13.60014
10344.47,13.60499
10371.46,13.55862
10398.46,13.52864
10425.46,13.50379
10452.46,13.44998
10479.46,13.39495
10506.46,13.26774
10533.46,13.10375
10560.46,12.92721
10587.46,12.63969
10614.46,12.27899
10641.45,11.86698
10668.45,11.41165
10695.45,11.08392
10722.45,11.0149
10749.45,11.04246
10776.45,11.15281
10803.45,11.50311
10830.45,11.72517
10857.45,12.04862
10884.45,12.30729
10911.44,12.5928
10938.44,12.85896
10965.44,13.02124
10992.44,13.20358
11019.44,13.35541
11046.44,13.4515
11073.44,13.53573
11100.44,13.6117
11127.44,13.65517
11154.43,13.77123
11181.43,13.73891
11208.43,13.89641
11235.43,13.94506
11262.43,14.09651
11289.43,14.02477
11316.43,14.20751
11343.43,14.23086
11370.43,14.18138
11397.43,14.19527
11424.42,14.39212
11451.42,14.37039
11478.42,14.34891
11505.42,14.28847
11532.42,14.46301
11559.42,14.37934
11586.42,14.41642
11613.42,14.42006
11640.42,14.49191
11667.42,14.58251
11694.41,14.43938
11721.41,14.52407
11748.41,14.57575
11775.41,14.49708
11802.41,14.43596
11829.41,14.38347
11856.41,14.49146
11883.41,14.67448
11910.41,14.47537
11937.41,14.48787
11964.4,14.591
11991.4,14.44202
11999.12,14.42999