File: Data/NIR/H0007HDPE_1.csv
Wavenumber,Intensity
3999.706,1.963603
4026.705,1.936154
4053.704,1.935194
4080.703,1.924559
4107.702,1.922943
4134.701,1.916789
4161.7,1.927781
4188.699,1.933411
4215.698,1.968591
4242.697,1.980041
4269.696,2.012296
4296.694,2.041283
4323.693,1.970639
4350.692,2.028188
4377.691,2.089569
4404.69,2.203927
4431.689,2.35242
4458.688,2.528687
4485.688,2.715369
4512.687,2.93932
4539.686,3.172492
4566.685,3.44923
4593.683,3.616811
4620.682,3.703666
4647.681,3.755964
4674.68,3.666624
4701.679,3.837958
4728.678,3.714803
4755.677,3.614057
4782.676,3.428459
4809.675,3.326954
4836.674,3.169961
4863.673,2.989191
4890.672,3.028607
4917.671,3.063468
4944.67,3.032867
4971.669,2.880406
4998.668,3.028847
5025.667,3.121317
5052.666,3.129535
5079.665,3.090199
5106.664,3.069912
5133.663,3.117023
5160.662,3.045025
5187.661,3.039647
5214.66,3.046581
5241.659,3.079793
5268.658,3.116561
5295.657,3.092272
5322.656,3.155042
5349.655,3.047537
5376.654,2.903549
5403.652,2.784872
5430.651,2.650356
5457.65,2.60479
5484.649,2.52858
5511.648,2.548384
5538.647,2.549494
5565.646,2.559043
5592.646,2.669688
5619.645,2.542288
5646.644,2.390671
5673.643,2.273454
5700.642,2.44756
5727.641,2.372563
5754.639,2.228707
5781.638,2.160905
5808.637,2.241511
5835.636,2.375869
5862.635,2.886944
5889.634,3.966565
5916.633,4.670772
5943.632,5.391677
5970.631,6.237067
5997.63,7.137364
6024.629,7.866496
6051.628,8.386501
6078.627,8.731803
6105.626,8.937398
6132.625,9.138813
6159.624,9.308693
6186.623,9.480471
6213.622,9.589876
6240.621,9.670811
6267.62,9.692049
6294.619,9.70993
6321.618,9.711615
6348.617,9.581118
6375.616,9.306777
6402.615,9.137909
6429.614,8.838775
6456.613,8.387414
6483.612,7.171848
6510.61,7.77586
6537.609,8.058708
6564.608,8.230744
6591.607,8.378619
6618.606,8.370506
6645.605,8.282351
6672.604,8.1204
6699.604,7.875958
6726.603,7.553869
6753.602,7.281672
6780.601,6.925975
6807.6,6.350603
6834.599,5.764494
6861.598,5.519693
6888.597,5.206905
6915.596,4.942306
6942.594,4.471694
6969.593,4.38203
6996.592,4.29928
7023.591,4.088352
7050.59,4.052502
7077.589,4.214092
7104.588,4.680708
7131.587,5.062782
7158.586,4.227306
7185.585,3.97181
7212.584,5.360645
7239.583,6.543901
7266.582,7.685318
7293.581,8.740929
7320.58,9.672707
7347.579,10.26303
7374.578,10.60123
7401.577,10.77769
7428.576,10.8778
7455.575,10.9576
7482.574,10.98914
7509.573,10.95333
7536.572,10.90153
7563.571,10.81326
7590.57,10.71033
7617.569,10.57666
7644.568,10.38546
7671.566,10.23248
7698.565,10.1421
7725.564,10.03111
7752.563,9.933715
7779.563,9.798556
7806.562,9.70049
7833.561,9.563788
7860.56,9.379549
7887.559,9.136924
7914.558,8.84125
7941.557,8.517211
7968.556,8.120048
7995.555,7.678743
8022.554,7.165833
8049.553,6.595328
8076.552,5.97381
8103.551,5.333806
8130.55,4.612998
8157.548,3.935683
8184.547,3.340625
8211.546,3.027312
8238.545,3.038485
8265.544,3.139725
8292.543,3.470113
8319.542,3.904163
8346.541,4.41998
8373.54,5.089866
8400.539,5.52857
8427.538,5.524909
8454.537,6.164557
8481.536,6.780464
8508.535,7.267657
8535.534,7.468626
8562.533,6.794738
8589.532,7.674302
8616.531,8.963836
8643.53,9.828588
8670.529,10.37814
8697.528,10.87753
8724.527,11.41596
8751.525,11.92413
8778.524,12.28699
8805.523,12.48684
8832.522,12.61267
8859.521,12.66267
8886.521,12.67803
8913.52,12.65007
8940.519,12.61968
8967.518,12.62178
8994.517,12.64355
9021.516,12.6932
9048.515,12.74448
9075.514,12.74224
9102.513,12.77366
9129.512,12.73154
9156.511,12.70464
9183.51,12.64298
9210.509,12.60247
9237.508,12.5368
9264.507,12.50226
9291.506,12.45715
9318.504,12.46304
9345.503,12.44302
9372.502,12.36565
9399.501,12.2805
9426.5,12.1637
9453.499,12.02921
9480.498,11.93027
9507.497,11.83621
9534.496,11.75146
9561.495,11.64625
9588.494,11.55772
9615.493,11.59572
9642.492,11.76462
9669.491,11.95086
9696.49,12.11431
9723.489,12.29477
9750.488,12.48499
9777.487,12.55731
9804.486,12.57666
9831.485,12.56153
9858.484,12.71846
9885.482,12.93525
9912.481,13.08896
9939.48,13.22023
9966.479,13.36799
9993.479,13.44107
10020.48,13.48217
10047.48,13.57032
10074.48,13.66906
10101.47,13.70303
10128.47,13.73434
10155.47,13.73472
10182.47,13.74395
10209.47,13.7535
10236.47,13.74413
10263.47,13.72735
10290.47,13.70181
10317.47,13.65749
10344.47,13.63106
10371.46,13.60085
10398.46,13.56933
10425.46,13.53439
10452.46,13.40719
10479.46,13.32786
10506.46,13.19249
10533.46,12.98214
10560.46,12.68858
10587.46,12.26027
10614.46,11.71281
10641.45,11.16925
10668.45,10.61727
10695.45,10.18424
10722.45,9.977957
10749.45,10.07756
10776.45,10.36563
10803.45,10.77217
10830.45,11.15537
10857.45,11.60103
10884.45,12.11874
10911.44,12.51349
10938.44,12.80115
10965.44,13.1766
10992.44,13.39252
11019.44,13.56809
11046.44,13.68449
11073.44,13.81331
11100.44,13.81306
11127.44,13.80912
11154.43,13.98789
11181.43,14.02902
11208.43,14.28355
11235.43,14.37577
11262.43,14.42954
11289.43,14.53444
11316.43,14.56867
11343.43,14.67143
11370.43,14.6292
11397.43,14.74002
11424.42,14.75002
11451.42,14.91343
11478.42,14.95547
11505.42,14.94229
11532.42,14.99922
11559.42,15.1316
11586.42,15.19358
11613.42,15.1318
11640.42,15.08449
11667.42,15.07751
11694.41,15.16537
11721.41,15.08642
11748.41,15.2056
11775.41,15.20108
11802.41,15.02677
11829.41,15.03726
11856.41,15.12249
11883.41,15.21532
11910.41,15.15692
11937.41,15.20641
11964.4,15.1148
11991.4,15.08766
11999.12,15.18032