File: Data/NIR/H0007HDPE_5.csv
Wavenumber,Intensity
3999.706,1.801897
4026.705,1.76213
4053.704,1.760883
4080.703,1.75251
4107.702,1.732482
4134.701,1.74305
4161.7,1.741112
4188.699,1.751838
4215.698,1.782187
4242.697,1.792045
4269.696,1.819491
4296.694,1.853088
4323.693,1.76728
4350.692,1.834563
4377.691,1.903944
4404.69,2.041596
4431.689,2.257156
4458.688,2.516384
4485.688,2.801791
4512.687,3.118795
4539.686,3.42925
4566.685,3.786668
4593.683,4.004485
4620.682,4.116673
4647.681,4.180112
4674.68,4.062066
4701.679,4.278438
4728.678,4.12106
4755.677,3.990699
4782.676,3.742071
4809.675,3.611626
4836.674,3.39499
4863.673,3.150271
4890.672,3.202918
4917.671,3.246408
4944.67,3.21499
4971.669,2.992873
4998.668,3.213293
5025.667,3.328559
5052.666,3.345962
5079.665,3.288816
5106.664,3.254677
5133.663,3.317692
5160.662,3.222089
5187.661,3.207907
5214.66,3.226579
5241.659,3.274644
5268.658,3.315333
5295.657,3.287999
5322.656,3.374664
5349.655,3.207719
5376.654,2.999027
5403.652,2.845436
5430.651,2.630692
5457.65,2.581951
5484.649,2.473454
5511.648,2.494504
5538.647,2.492475
5565.646,2.512523
5592.646,2.675523
5619.645,2.494438
5646.644,2.262592
5673.643,2.088753
5700.642,2.340113
5727.641,2.228184
5754.639,2.032377
5781.638,1.953532
5808.637,2.046288
5835.636,2.231555
5862.635,2.989631
5889.634,4.417611
5916.633,5.289095
5943.632,6.145312
5970.631,7.121676
5997.63,8.130971
6024.629,8.915793
6051.628,9.475079
6078.627,9.841969
6105.626,10.05817
6132.625,10.27115
6159.624,10.44784
6186.623,10.62159
6213.622,10.73399
6240.621,10.81719
6267.62,10.84167
6294.619,10.86416
6321.618,10.86105
6348.617,10.72405
6375.616,10.43625
6402.615,10.27233
6429.614,9.946828
6456.613,9.473169
6483.612,8.158045
6510.61,8.808833
6537.609,9.123598
6564.608,9.305165
6591.607,9.462893
6618.606,9.461861
6645.605,9.359392
6672.604,9.176007
6699.604,8.914602
6726.603,8.5727
6753.602,8.269064
6780.601,7.878906
6807.6,7.225197
6834.599,6.564776
6861.598,6.27396
6888.597,5.9103
6915.596,5.591468
6942.594,5.030318
6969.593,4.911313
6996.592,4.807217
7023.591,4.539913
7050.59,4.504523
7077.589,4.709575
7104.588,5.276587
7131.587,5.741983
7158.586,4.710239
7185.585,4.394859
7212.584,6.085173
7239.583,7.450149
7266.582,8.706608
7293.581,9.843268
7320.58,10.81679
7347.579,11.4114
7374.578,11.76446
7401.577,11.94854
7428.576,12.04617
7455.575,12.12675
7482.574,12.16626
7509.573,12.13099
7536.572,12.07668
7563.571,11.97777
7590.57,11.87499
7617.569,11.73717
7644.568,11.54332
7671.566,11.39307
7698.565,11.28987
7725.564,11.17572
7752.563,11.07795
7779.563,10.93575
7806.562,10.83424
7833.561,10.68845
7860.56,10.50159
7887.559,10.24033
7914.558,9.937783
7941.557,9.576591
7968.556,9.146626
7995.555,8.661988
8022.554,8.116416
8049.553,7.478781
8076.552,6.762591
8103.551,6.011761
8130.55,5.151858
8157.548,4.283126
8184.547,3.486098
8211.546,3.086803
8238.545,3.095233
8265.544,3.243531
8292.543,3.673986
8319.542,4.242609
8346.541,4.897891
8373.54,5.697943
8400.539,6.246779
8427.538,6.206337
8454.537,6.950805
8481.536,7.656549
8508.535,8.205565
8535.534,8.424675
8562.533,7.676778
8589.532,8.645967
8616.531,10.04588
8643.53,10.96142
8670.529,11.51959
8697.528,12.02282
8724.527,12.56865
8751.525,13.07587
8778.524,13.4296
8805.523,13.64327
8832.522,13.76699
8859.521,13.81085
8886.521,13.84079
8913.52,13.79512
8940.519,13.76456
8967.518,13.77507
8994.517,13.78544
9021.516,13.8343
9048.515,13.87261
9075.514,13.88474
9102.513,13.91031
9129.512,13.89397
9156.511,13.83886
9183.51,13.789
9210.509,13.72983
9237.508,13.7023
9264.507,13.63432
9291.506,13.57434
9318.504,13.61085
9345.503,13.57926
9372.502,13.50431
9399.501,13.41787
9426.5,13.32213
9453.499,13.1699
9480.498,13.06109
9507.497,12.99072
9534.496,12.86327
9561.495,12.78477
9588.494,12.66247
9615.493,12.73733
9642.492,12.85854
9669.491,13.07606
9696.49,13.24786
9723.489,13.44897
9750.488,13.60142
9777.487,13.70653
9804.486,13.66919
9831.485,13.72171
9858.484,13.86921
9885.482,14.0576
9912.481,14.2394
9939.48,14.36689
9966.479,14.48577
9993.479,14.5547
10020.48,14.63914
10047.48,14.71806
10074.48,14.77702
10101.47,14.82469
10128.47,14.84023
10155.47,14.88001
10182.47,14.84733
10209.47,14.87826
10236.47,14.81863
10263.47,14.90562
10290.47,14.83191
10317.47,14.78349
10344.47,14.78007
10371.46,14.72503
10398.46,14.69931
10425.46,14.65835
10452.46,14.59436
10479.46,14.48633
10506.46,14.3117
10533.46,14.05361
10560.46,13.7806
10587.46,13.39985
10614.46,12.91495
10641.45,12.2826
10668.45,11.67355
10695.45,11.24709
10722.45,11.10713
10749.45,11.21555
10776.45,11.40815
10803.45,11.90171
10830.45,12.34845
10857.45,12.74643
10884.45,13.23026
10911.44,13.6146
10938.44,13.93943
10965.44,14.31442
10992.44,14.523
11019.44,14.64619
11046.44,14.81531
11073.44,14.92669
11100.44,14.96982
11127.44,14.94522
11154.43,15.1214
11181.43,15.13836
11208.43,15.33015
11235.43,15.49172
11262.43,15.69272
11289.43,15.63382
11316.43,15.72739
11343.43,15.83123
11370.43,15.76886
11397.43,15.85133
11424.42,15.95558
11451.42,15.97957
11478.42,16.01067
11505.42,15.97809
11532.42,16.18635
11559.42,16.16007
11586.42,16.18652
11613.42,16.1258
11640.42,16.28295
11667.42,16.26749
11694.41,16.202
11721.41,16.12234
11748.41,16.25242
11775.41,16.13838
11802.41,16.10864
11829.41,16.13126
11856.41,16.11771
11883.41,16.2206
11910.41,16.00913
11937.41,16.07923
11964.4,16.0996
11991.4,15.98484
11999.12,15.97038