File: Data/NIR/H0008HDPE_3.csv
Wavenumber,Intensity
3999.706,3.107917
4026.705,3.087777
4053.704,3.097191
4080.703,3.098825
4107.702,3.095982
4134.701,3.102969
4161.7,3.112859
4188.699,3.130747
4215.698,3.181862
4242.697,3.199257
4269.696,3.232541
4296.694,3.259019
4323.693,3.209237
4350.692,3.252995
4377.691,3.321202
4404.69,3.556461
4431.689,3.864002
4458.688,4.152122
4485.688,4.412448
4512.687,4.741362
4539.686,5.039086
4566.685,5.376571
4593.683,5.568229
4620.682,5.675981
4647.681,5.741961
4674.68,5.661306
4701.679,5.835662
4728.678,5.709601
4755.677,5.649673
4782.676,5.451077
4809.675,5.346303
4836.674,5.165113
4863.673,4.938557
4890.672,5.000131
4917.671,5.057666
4944.67,5.02923
4971.669,4.829843
4998.668,5.048947
5025.667,5.164622
5052.666,5.188639
5079.665,5.140442
5106.664,5.114702
5133.663,5.190547
5160.662,5.103312
5187.661,5.096951
5214.66,5.118269
5241.659,5.168691
5268.658,5.212851
5295.657,5.193888
5322.656,5.282122
5349.655,5.125319
5376.654,4.912967
5403.652,4.769551
5430.651,4.531096
5457.65,4.476877
5484.649,4.347793
5511.648,4.383228
5538.647,4.389316
5565.646,4.416802
5592.646,4.622294
5619.645,4.39452
5646.644,4.077961
5673.643,3.779838
5700.642,4.220481
5727.641,4.037202
5754.639,3.653538
5781.638,3.474665
5808.637,3.697414
5835.636,4.056607
5862.635,5.081511
5889.634,6.477825
5916.633,7.206059
5943.632,7.792947
5970.631,8.597319
5997.63,9.438501
6024.629,10.09031
6051.628,10.55249
6078.627,10.83743
6105.626,10.73447
6132.625,11.11618
6159.624,11.37708
6186.623,11.55781
6213.622,11.66026
6240.621,11.75063
6267.62,11.77761
6294.619,11.8123
6321.618,11.8222
6348.617,11.71748
6375.616,11.49589
6402.615,11.36209
6429.614,11.10056
6456.613,10.71409
6483.612,9.608304
6510.61,10.18503
6537.609,10.46091
6564.608,10.62843
6591.607,10.78661
6618.606,10.79671
6645.605,10.72758
6672.604,10.5877
6699.604,10.37894
6726.603,10.08839
6753.602,9.851777
6780.601,9.524131
6807.6,8.973889
6834.599,8.406181
6861.598,8.1673
6888.597,7.855098
6915.596,7.586614
6942.594,7.086343
6969.593,6.992923
6996.592,6.901457
7023.591,6.653174
7050.59,6.621178
7077.589,6.824745
7104.588,7.329724
7131.587,7.756681
7158.586,6.841125
7185.585,6.551856
7212.584,8.136177
7239.583,9.368674
7266.582,10.5029
7293.581,11.50899
7320.58,12.38322
7347.579,12.94791
7374.578,13.21095
7401.577,13.36758
7428.576,13.46318
7455.575,13.54618
7482.574,13.58775
7509.573,13.56039
7536.572,13.53589
7563.571,13.47291
7590.57,13.39813
7617.569,13.27628
7644.568,13.11146
7671.566,12.98603
7698.565,12.91405
7725.564,12.81724
7752.563,12.73585
7779.563,12.62042
7806.562,12.55109
7833.561,12.43472
7860.56,12.26853
7887.559,12.04069
7914.558,11.78282
7941.557,11.47225
7968.556,11.09339
7995.555,10.67488
8022.554,10.17384
8049.553,9.594751
8076.552,8.962832
8103.551,8.269376
8130.55,7.459383
8157.548,6.621176
8184.547,5.783786
8211.546,5.310644
8238.545,5.334583
8265.544,5.513071
8292.543,6.020174
8319.542,6.639197
8346.541,7.306659
8373.54,8.143227
8400.539,8.648592
8427.538,8.588026
8454.537,9.308333
8481.536,9.966362
8508.535,10.48571
8535.534,10.67936
8562.533,9.972652
8589.532,10.90175
8616.531,12.25158
8643.53,13.10389
8670.529,13.65129
8697.528,14.15084
8724.527,14.63131
8751.525,15.13312
8778.524,15.48955
8805.523,15.71288
8832.522,15.81672
8859.521,15.88574
8886.521,15.90567
8913.52,15.88695
8940.519,15.85445
8967.518,15.88458
8994.517,15.91171
9021.516,15.96475
9048.515,16.01548
9075.514,16.04667
9102.513,16.09892
9129.512,16.07335
9156.511,16.06494
9183.51,16.01117
9210.509,15.96545
9237.508,15.91877
9264.507,15.92173
9291.506,15.89129
9318.504,15.89607
9345.503,15.89623
9372.502,15.82088
9399.501,15.71807
9426.5,15.64118
9453.499,15.51176
9480.498,15.41359
9507.497,15.35013
9534.496,15.263
9561.495,15.18217
9588.494,15.09887
9615.493,15.14481
9642.492,15.31365
9669.491,15.52
9696.49,15.70507
9723.489,15.90373
9750.488,16.09479
9777.487,16.20746
9804.486,16.21215
9831.485,16.24176
9858.484,16.39858
9885.482,16.65368
9912.481,16.80424
9939.48,16.97343
9966.479,17.14014
9993.479,17.22575
10020.48,17.27968
10047.48,17.37773
10074.48,17.48528
10101.47,17.51962
10128.47,17.55825
10155.47,17.58465
10182.47,17.61334
10209.47,17.5813
10236.47,17.60809
10263.47,17.60923
10290.47,17.5917
10317.47,17.525
10344.47,17.52181
10371.46,17.54496
10398.46,17.50781
10425.46,17.467
10452.46,17.37916
10479.46,17.27698
10506.46,17.16077
10533.46,16.94546
10560.46,16.62493
10587.46,16.24195
10614.46,15.70652
10641.45,15.13999
10668.45,14.54522
10695.45,14.09536
10722.45,13.93103
10749.45,13.97464
10776.45,14.33033
10803.45,14.79154
10830.45,15.21145
10857.45,15.69416
10884.45,16.18789
10911.44,16.59587
10938.44,16.97891
10965.44,17.26054
10992.44,17.57033
11019.44,17.74183
11046.44,17.8583
11073.44,17.96488
11100.44,17.9757
11127.44,18.09318
11154.43,18.14669
11181.43,18.24291
11208.43,18.52003
11235.43,18.62676
11262.43,18.67196
11289.43,18.80197
11316.43,18.83029
11343.43,18.92507
11370.43,18.97016
11397.43,19.14559
11424.42,19.07704
11451.42,19.23808
11478.42,19.41831
11505.42,19.21711
11532.42,19.42027
11559.42,19.49027
11586.42,19.55799
11613.42,19.55919
11640.42,19.55186
11667.42,19.48117
11694.41,19.62087
11721.41,19.65856
11748.41,19.64135
11775.41,19.68811
11802.41,19.51598
11829.41,19.55145
11856.41,19.66607
11883.41,19.64971
11910.41,19.76749
11937.41,19.95251
11964.4,20.06508
11991.4,19.93248
11999.12,20.03335