File: Data/NIR/H0003LDPE_1.csv
Wavenumber,Intensity
3999.706,3.21427
4026.705,3.236509
4053.704,3.250483
4080.703,3.261715
4107.702,3.270815
4134.701,3.280164
4161.7,3.29319
4188.699,3.310439
4215.698,3.351047
4242.697,3.372525
4269.696,3.392745
4296.694,3.410419
4323.693,3.404754
4350.692,3.416703
4377.691,3.416769
4404.69,3.427412
4431.689,3.46849
4458.688,3.587665
4485.688,3.731015
4512.687,3.900491
4539.686,4.096169
4566.685,4.321075
4593.683,4.479423
4620.682,4.579649
4647.681,4.632591
4674.68,4.609924
4701.679,4.716486
4728.678,4.651759
4755.677,4.593397
4782.676,4.485168
4809.675,4.415379
4836.674,4.295583
4863.673,4.147342
4890.672,4.16631
4917.671,4.187572
4944.67,4.163772
4971.669,4.038013
4998.668,4.144273
5025.667,4.208584
5052.666,4.221293
5079.665,4.201583
5106.664,4.190482
5133.663,4.223271
5160.662,4.183555
5187.661,4.175604
5214.66,4.176736
5241.659,4.197232
5268.658,4.209723
5295.657,4.204413
5322.656,4.229146
5349.655,4.161585
5376.654,4.048821
5403.652,3.952636
5430.651,3.857338
5457.65,3.81894
5484.649,3.77031
5511.648,3.772353
5538.647,3.775349
5565.646,3.784034
5592.646,3.831884
5619.645,3.762423
5646.644,3.684927
5673.643,3.654574
5700.642,3.708781
5727.641,3.703944
5754.639,3.650658
5781.638,3.642563
5808.637,3.65523
5835.636,3.686825
5862.635,3.852679
5889.634,4.453161
5916.633,5.024362
5943.632,6.082189
5970.631,6.891837
5997.63,7.56389
6024.629,8.088658
6051.628,8.462266
6078.627,8.719121
6105.626,8.874322
6132.625,9.053829
6159.624,9.279916
6186.623,9.47774
6213.622,9.600763
6240.621,9.684806
6267.62,9.718388
6294.619,9.749855
6321.618,9.755603
6348.617,9.686077
6375.616,9.52281
6402.615,9.413455
6429.614,9.202804
6456.613,8.901219
6483.612,8.079263
6510.61,8.3667
6537.609,8.522795
6564.608,8.605143
6591.607,8.683072
6618.606,8.666466
6645.605,8.584039
6672.604,8.454049
6699.604,8.253618
6726.603,8.016919
6753.602,7.790059
6780.601,7.505246
6807.6,7.090909
6834.599,6.671926
6861.598,6.449869
6888.597,6.167299
6915.596,5.906083
6942.594,5.551043
6969.593,5.435555
6996.592,5.368382
7023.591,5.205205
7050.59,5.120189
7077.589,5.171561
7104.588,5.551475
7131.587,5.857552
7158.586,5.257163
7185.585,4.983007
7212.584,5.963972
7239.583,6.861338
7266.582,7.686464
7293.581,8.498599
7320.58,9.242767
7347.579,9.644879
7374.578,10.07608
7401.577,10.37473
7428.576,10.51394
7455.575,10.57149
7482.574,10.60505
7509.573,10.58247
7536.572,10.55619
7563.571,10.50829
7590.57,10.43452
7617.569,10.3384
7644.568,10.21176
7671.566,10.09699
7698.565,10.02243
7725.564,9.941583
7752.563,9.842805
7779.563,9.740831
7806.562,9.647833
7833.561,9.540875
7860.56,9.389313
7887.559,9.202928
7914.558,8.974253
7941.557,8.707467
7968.556,8.396625
7995.555,8.048249
8022.554,7.644791
8049.553,7.184038
8076.552,6.700502
8103.551,6.164839
8130.55,5.571417
8157.548,4.994668
8184.547,4.493242
8211.546,4.245468
8238.545,4.224785
8265.544,4.284162
8292.543,4.521455
8319.542,4.835598
8346.541,5.193583
8373.54,5.596292
8400.539,5.903414
8427.538,6.037525
8454.537,6.562547
8481.536,7.039516
8508.535,7.411394
8535.534,7.607972
8562.533,7.328676
8589.532,7.870674
8616.531,8.670833
8643.53,9.287026
8670.529,9.671371
8697.528,10.02132
8724.527,10.46469
8751.525,10.86955
8778.524,11.16351
8805.523,11.34686
8832.522,11.45613
8859.521,11.5113
8886.521,11.54261
8913.52,11.54749
8940.519,11.52193
8967.518,11.52233
8994.517,11.53736
9021.516,11.55347
9048.515,11.58489
9075.514,11.56963
9102.513,11.59371
9129.512,11.57179
9156.511,11.55545
9183.51,11.49556
9210.509,11.46568
9237.508,11.41292
9264.507,11.38269
9291.506,11.34469
9318.504,11.32848
9345.503,11.34328
9372.502,11.25361
9399.501,11.19827
9426.5,11.13471
9453.499,11.03495
9480.498,10.97045
9507.497,10.9211
9534.496,10.84415
9561.495,10.77217
9588.494,10.71339
9615.493,10.73664
9642.492,10.81466
9669.491,10.94175
9696.49,11.02472
9723.489,11.14913
9750.488,11.26856
9777.487,11.28581
9804.486,11.31453
9831.485,11.31686
9858.484,11.42601
9885.482,11.55346
9912.481,11.63925
9939.48,11.73867
9966.479,11.83539
9993.479,11.88505
10020.48,11.89285
10047.48,11.96311
10074.48,12.04822
10101.47,12.08478
10128.47,12.11012
10155.47,12.07182
10182.47,12.11197
10209.47,12.10248
10236.47,12.07541
10263.47,12.08109
10290.47,12.04701
10317.47,11.99436
10344.47,11.98052
10371.46,11.98167
10398.46,11.91575
10425.46,11.93938
10452.46,11.81909
10479.46,11.7651
10506.46,11.68305
10533.46,11.5471
10560.46,11.29636
10587.46,11.08069
10614.46,10.73392
10641.45,10.38572
10668.45,9.97778
10695.45,9.634521
10722.45,9.47664
10749.45,9.595297
10776.45,9.758084
10803.45,9.947451
10830.45,10.2571
10857.45,10.49493
10884.45,10.78618
10911.44,10.98204
10938.44,11.21121
10965.44,11.47563
10992.44,11.61278
11019.44,11.70881
11046.44,11.81792
11073.44,11.91263
11100.44,11.94694
11127.44,11.9596
11154.43,12.00342
11181.43,12.10731
11208.43,12.19157
11235.43,12.35401
11262.43,12.33565
11289.43,12.43537
11316.43,12.3762
11343.43,12.50245
11370.43,12.46192
11397.43,12.51848
11424.42,12.56853
11451.42,12.66157
11478.42,12.73047
11505.42,12.65282
11532.42,12.75601
11559.42,12.79906
11586.42,12.84142
11613.42,12.84833
11640.42,12.78313
11667.42,12.69284
11694.41,12.74576
11721.41,12.75576
11748.41,12.87864
11775.41,12.8988
11802.41,12.70274
11829.41,12.72271
11856.41,12.64557
11883.41,12.68489
11910.41,12.70519
11937.41,12.71953
11964.4,12.7124
11991.4,12.72138
11999.12,12.80127