File: Data/NIR/H0007HDPE_3.csv
Wavenumber,Intensity
3999.706,1.614875
4026.705,1.588448
4053.704,1.583144
4080.703,1.568749
4107.702,1.560316
4134.701,1.563425
4161.7,1.572908
4188.699,1.573664
4215.698,1.607125
4242.697,1.61514
4269.696,1.645093
4296.694,1.674896
4323.693,1.598362
4350.692,1.655822
4377.691,1.715474
4404.69,1.845343
4431.689,2.05212
4458.688,2.277257
4485.688,2.519013
4512.687,2.782542
4539.686,3.040982
4566.685,3.338658
4593.683,3.516749
4620.682,3.611143
4647.681,3.66338
4674.68,3.567457
4701.679,3.748315
4728.678,3.626793
4755.677,3.518894
4782.676,3.313036
4809.675,3.210216
4836.674,3.029179
4863.673,2.820896
4890.672,2.867638
4917.671,2.909589
4944.67,2.880648
4971.669,2.695695
4998.668,2.875971
5025.667,2.976552
5052.666,2.989414
5079.665,2.944787
5106.664,2.917326
5133.663,2.97483
5160.662,2.89281
5187.661,2.881984
5214.66,2.898189
5241.659,2.939601
5268.658,2.971508
5295.657,2.952319
5322.656,3.023904
5349.655,2.890891
5376.654,2.70218
5403.652,2.577361
5430.651,2.386468
5457.65,2.347303
5484.649,2.253225
5511.648,2.273814
5538.647,2.276145
5565.646,2.289475
5592.646,2.433957
5619.645,2.268136
5646.644,2.058029
5673.643,1.890809
5700.642,2.131026
5727.641,2.027255
5754.639,1.832619
5781.638,1.759717
5808.637,1.85031
5835.636,2.029899
5862.635,2.70648
5889.634,3.931164
5916.633,4.682204
5943.632,5.418273
5970.631,6.270175
5997.63,7.161555
6024.629,7.877741
6051.628,8.386229
6078.627,8.719518
6105.626,8.922307
6132.625,9.125005
6159.624,9.290578
6186.623,9.451088
6213.622,9.560704
6240.621,9.644063
6267.62,9.665881
6294.619,9.692979
6321.618,9.694238
6348.617,9.564464
6375.616,9.31244
6402.615,9.152995
6429.614,8.861259
6456.613,8.434284
6483.612,7.244094
6510.61,7.836755
6537.609,8.118764
6564.608,8.288215
6591.607,8.440716
6618.606,8.435126
6645.605,8.348737
6672.604,8.188818
6699.604,7.953653
6726.603,7.644249
6753.602,7.37783
6780.601,7.024039
6807.6,6.445941
6834.599,5.85628
6861.598,5.609303
6888.597,5.284164
6915.596,5.008749
6942.594,4.513573
6969.593,4.421285
6996.592,4.328865
7023.591,4.086822
7050.59,4.057754
7077.589,4.234868
7104.588,4.741693
7131.587,5.150488
7158.586,4.261484
7185.585,3.965102
7212.584,5.463972
7239.583,6.691854
7266.582,7.824327
7293.581,8.853947
7320.58,9.779541
7347.579,10.3345
7374.578,10.68513
7401.577,10.85518
7428.576,10.95938
7455.575,11.03999
7482.574,11.07508
7509.573,11.0384
7536.572,10.99622
7563.571,10.91312
7590.57,10.81167
7617.569,10.6797
7644.568,10.50332
7671.566,10.3537
7698.565,10.2695
7725.564,10.16256
7752.563,10.06612
7779.563,9.941099
7806.562,9.852234
7833.561,9.712769
7860.56,9.543888
7887.559,9.29121
7914.558,9.016068
7941.557,8.685093
7968.556,8.292562
7995.555,7.858247
8022.554,7.351501
8049.553,6.766182
8076.552,6.131732
8103.551,5.445238
8130.55,4.683713
8157.548,3.90258
8184.547,3.199484
8211.546,2.819996
8238.545,2.816964
8265.544,2.957662
8292.543,3.359016
8319.542,3.866296
8346.541,4.447077
8373.54,5.186299
8400.539,5.658799
8427.538,5.633725
8454.537,6.311734
8481.536,6.962506
8508.535,7.461985
8535.534,7.665127
8562.533,6.989668
8589.532,7.886658
8616.531,9.188816
8643.53,10.04116
8670.529,10.57434
8697.528,11.07035
8724.527,11.5902
8751.525,12.08819
8778.524,12.43127
8805.523,12.63654
8832.522,12.73795
8859.521,12.78656
8886.521,12.80499
8913.52,12.78496
8940.519,12.76698
8967.518,12.76549
8994.517,12.7702
9021.516,12.82861
9048.515,12.85543
9075.514,12.86668
9102.513,12.90744
9129.512,12.87794
9156.511,12.84788
9183.51,12.78225
9210.509,12.7344
9237.508,12.69683
9264.507,12.658
9291.506,12.61661
9318.504,12.6112
9345.503,12.61525
9372.502,12.51315
9399.501,12.42877
9426.5,12.30785
9453.499,12.21104
9480.498,12.09348
9507.497,12.02785
9534.496,11.93845
9561.495,11.82039
9588.494,11.72659
9615.493,11.7735
9642.492,11.93865
9669.491,12.1359
9696.49,12.29104
9723.489,12.47709
9750.488,12.6674
9777.487,12.71803
9804.486,12.73838
9831.485,12.74662
9858.484,12.91263
9885.482,13.10878
9912.481,13.24542
9939.48,13.40046
9966.479,13.52776
9993.479,13.6225
10020.48,13.69208
10047.48,13.76132
10074.48,13.84178
10101.47,13.89304
10128.47,13.92271
10155.47,13.89008
10182.47,13.92423
10209.47,13.93386
10236.47,13.93383
10263.47,13.90416
10290.47,13.89151
10317.47,13.83998
10344.47,13.80292
10371.46,13.80978
10398.46,13.75493
10425.46,13.69728
10452.46,13.62084
10479.46,13.50693
10506.46,13.36677
10533.46,13.15891
10560.46,12.85226
10587.46,12.46839
10614.46,12.0009
10641.45,11.47991
10668.45,10.83307
10695.45,10.40964
10722.45,10.24788
10749.45,10.29681
10776.45,10.62479
10803.45,11.00445
10830.45,11.409
10857.45,11.89599
10884.45,12.32443
10911.44,12.71185
10938.44,13.03006
10965.44,13.39415
10992.44,13.6386
11019.44,13.75325
11046.44,13.86296
11073.44,14.00935
11100.44,14.03349
11127.44,14.09614
11154.43,14.18692
11181.43,14.2546
11208.43,14.42795
11235.43,14.57808
11262.43,14.6413
11289.43,14.68419
11316.43,14.71791
11343.43,14.86121
11370.43,14.89902
11397.43,14.98946
11424.42,15.01466
11451.42,15.08565
11478.42,15.26893
11505.42,15.09849
11532.42,15.20907
11559.42,15.28222
11586.42,15.34531
11613.42,15.28738
11640.42,15.33048
11667.42,15.2592
11694.41,15.34013
11721.41,15.24254
11748.41,15.31205
11775.41,15.29131
11802.41,15.22863
11829.41,15.18914
11856.41,15.32823
11883.41,15.27346
11910.41,15.31658
11937.41,15.3017
11964.4,15.43771
11991.4,15.28689
11999.12,15.28561