File: Data/NIR/H0008HDPE_2.csv
Wavenumber,Intensity
3999.706,3.08597
4026.705,3.073017
4053.704,3.08328
4080.703,3.089162
4107.702,3.081595
4134.701,3.091544
4161.7,3.099672
4188.699,3.113017
4215.698,3.155753
4242.697,3.173267
4269.696,3.203755
4296.694,3.230104
4323.693,3.175193
4350.692,3.224631
4377.691,3.279914
4404.69,3.438375
4431.689,3.637556
4458.688,3.845047
4485.688,4.033776
4512.687,4.290947
4539.686,4.540596
4566.685,4.825676
4593.683,4.995562
4620.682,5.095456
4647.681,5.156865
4674.68,5.088419
4701.679,5.24405
4728.678,5.133324
4755.677,5.085949
4782.676,4.912699
4809.675,4.829362
4836.674,4.676936
4863.673,4.495556
4890.672,4.547362
4917.671,4.597656
4944.67,4.574355
4971.669,4.418389
4998.668,4.599135
5025.667,4.698475
5052.666,4.716205
5079.665,4.68214
5106.664,4.669905
5133.663,4.732479
5160.662,4.66048
5187.661,4.658546
5214.66,4.678688
5241.659,4.72536
5268.658,4.765831
5295.657,4.752076
5322.656,4.830629
5349.655,4.700258
5376.654,4.527951
5403.652,4.413921
5430.651,4.222064
5457.65,4.187753
5484.649,4.089318
5511.648,4.118953
5538.647,4.125092
5565.646,4.148444
5592.646,4.31071
5619.645,4.137319
5646.644,3.887863
5673.643,3.663852
5700.642,4.000086
5727.641,3.863157
5754.639,3.575038
5781.638,3.432726
5808.637,3.607456
5835.636,3.886355
5862.635,4.725437
5889.634,5.986423
5916.633,6.694029
5943.632,7.284176
5970.631,8.101478
5997.63,8.97499
6024.629,9.665627
6051.628,10.15892
6078.627,10.46134
6105.626,10.35402
6132.625,10.76476
6159.624,11.04554
6186.623,11.23974
6213.622,11.35442
6240.621,11.45023
6267.62,11.4898
6294.619,11.52544
6321.618,11.54055
6348.617,11.42541
6375.616,11.18868
6402.615,11.05115
6429.614,10.78017
6456.613,10.3724
6483.612,9.214535
6510.61,9.815497
6537.609,10.10917
6564.608,10.29332
6591.607,10.46017
6618.606,10.47096
6645.605,10.40595
6672.604,10.26212
6699.604,10.04306
6726.603,9.742671
6753.602,9.499906
6780.601,9.160511
6807.6,8.59786
6834.599,8.016599
6861.598,7.785655
6888.597,7.471417
6915.596,7.206205
6942.594,6.714234
6969.593,6.629298
6996.592,6.541696
7023.591,6.298556
7050.59,6.280343
7077.589,6.478445
7104.588,6.97894
7131.587,7.411067
7158.586,6.515058
7185.585,6.220503
7212.584,7.799301
7239.583,9.062758
7266.582,10.23804
7293.581,11.28747
7320.58,12.22354
7347.579,12.81142
7374.578,13.10423
7401.577,13.26301
7428.576,13.37391
7455.575,13.46
7482.574,13.50526
7509.573,13.48142
7536.572,13.45609
7563.571,13.39037
7590.57,13.30978
7617.569,13.18188
7644.568,13.01789
7671.566,12.87362
7698.565,12.80487
7725.564,12.7046
7752.563,12.61912
7779.563,12.49914
7806.562,12.43022
7833.561,12.30784
7860.56,12.14046
7887.559,11.90406
7914.558,11.62573
7941.557,11.3124
7968.556,10.92308
7995.555,10.48313
8022.554,9.959535
8049.553,9.381466
8076.552,8.722893
8103.551,8.022623
8130.55,7.219536
8157.548,6.379901
8184.547,5.577577
8211.546,5.139764
8238.545,5.153749
8265.544,5.330677
8292.543,5.811223
8319.542,6.409611
8346.541,7.076755
8373.54,7.906156
8400.539,8.438119
8427.538,8.380955
8454.537,9.105371
8481.536,9.789874
8508.535,10.32484
8535.534,10.52697
8562.533,9.80004
8589.532,10.7621
8616.531,12.16988
8643.53,13.05843
8670.529,13.64974
8697.528,14.16038
8724.527,14.68808
8751.525,15.21733
8778.524,15.60112
8805.523,15.83387
8832.522,15.96454
8859.521,16.02822
8886.521,16.04249
8913.52,16.02911
8940.519,15.99176
8967.518,16.01451
8994.517,16.05742
9021.516,16.12375
9048.515,16.1816
9075.514,16.20422
9102.513,16.25121
9129.512,16.22478
9156.511,16.22196
9183.51,16.16813
9210.509,16.13257
9237.508,16.09683
9264.507,16.06951
9291.506,16.054
9318.504,16.06129
9345.503,16.05137
9372.502,15.96759
9399.501,15.8998
9426.5,15.78801
9453.499,15.65845
9480.498,15.56056
9507.497,15.49246
9534.496,15.42245
9561.495,15.31224
9588.494,15.22412
9615.493,15.25987
9642.492,15.45482
9669.491,15.68442
9696.49,15.86903
9723.489,16.08524
9750.488,16.29414
9777.487,16.37973
9804.486,16.41903
9831.485,16.44762
9858.484,16.63442
9885.482,16.86369
9912.481,17.02258
9939.48,17.22353
9966.479,17.38975
9993.479,17.50288
10020.48,17.54871
10047.48,17.6758
10074.48,17.73394
10101.47,17.83512
10128.47,17.86507
10155.47,17.84512
10182.47,17.89773
10209.47,17.90073
10236.47,17.90549
10263.47,17.90797
10290.47,17.89716
10317.47,17.82674
10344.47,17.83107
10371.46,17.85386
10398.46,17.77089
10425.46,17.77067
10452.46,17.68991
10479.46,17.61283
10506.46,17.44454
10533.46,17.20874
10560.46,16.89322
10587.46,16.45251
10614.46,15.95664
10641.45,15.33832
10668.45,14.72081
10695.45,14.19811
10722.45,14.09335
10749.45,14.15937
10776.45,14.50279
10803.45,14.93307
10830.45,15.4267
10857.45,15.88483
10884.45,16.44331
10911.44,16.85116
10938.44,17.28851
10965.44,17.64291
10992.44,17.93913
11019.44,18.03011
11046.44,18.18399
11073.44,18.30278
11100.44,18.32789
11127.44,18.39765
11154.43,18.49313
11181.43,18.61685
11208.43,18.80956
11235.43,19.016
11262.43,19.05168
11289.43,19.26331
11316.43,19.2753
11343.43,19.34225
11370.43,19.3631
11397.43,19.53798
11424.42,19.52005
11451.42,19.68588
11478.42,19.74217
11505.42,19.70566
11532.42,19.76244
11559.42,19.85943
11586.42,20.06079
11613.42,20.02806
11640.42,19.94182
11667.42,19.95662
11694.41,20.04842
11721.41,20.01578
11748.41,20.01713
11775.41,20.10757
11802.41,20.05786
11829.41,20.15093
11856.41,20.14267
11883.41,20.06952
11910.41,20.28819
11937.41,20.32988
11964.4,20.43978
11991.4,20.51451
11999.12,20.60166