File: Data/NIR/H0002LDPE_5.csv
Wavenumber,Intensity
3999.706,3.070166
4026.705,3.085577
4053.704,3.10176
4080.703,3.116038
4107.702,3.118123
4134.701,3.130319
4161.7,3.137086
4188.699,3.15757
4215.698,3.186077
4242.697,3.205086
4269.696,3.221681
4296.694,3.232619
4323.693,3.229025
4350.692,3.24097
4377.691,3.243379
4404.69,3.248235
4431.689,3.273245
4458.688,3.340818
4485.688,3.433127
4512.687,3.549742
4539.686,3.685696
4566.685,3.850461
4593.683,3.967041
4620.682,4.033693
4647.681,4.079505
4674.68,4.053414
4701.679,4.140027
4728.678,4.091598
4755.677,4.049067
4782.676,3.967271
4809.675,3.915765
4836.674,3.824462
4863.673,3.727718
4890.672,3.741337
4917.671,3.762586
4944.67,3.747724
4971.669,3.658794
4998.668,3.742873
5025.667,3.785599
5052.666,3.797327
5079.665,3.78211
5106.664,3.772222
5133.663,3.797484
5160.662,3.769357
5187.661,3.764409
5214.66,3.769541
5241.659,3.787958
5268.658,3.800114
5295.657,3.791155
5322.656,3.818099
5349.655,3.766708
5376.654,3.698965
5403.652,3.628273
5430.651,3.558946
5457.65,3.533071
5484.649,3.503529
5511.648,3.503456
5538.647,3.505115
5565.646,3.513497
5592.646,3.550906
5619.645,3.503919
5646.644,3.454201
5673.643,3.438666
5700.642,3.468769
5727.641,3.466154
5754.639,3.436318
5781.638,3.435126
5808.637,3.43589
5835.636,3.463347
5862.635,3.587768
5889.634,4.043142
5916.633,4.481353
5943.632,5.262709
5970.631,5.904964
5997.63,6.465887
6024.629,6.903929
6051.628,7.216279
6078.627,7.433202
6105.626,7.55878
6132.625,7.702266
6159.624,7.877884
6186.623,8.03562
6213.622,8.130924
6240.621,8.196634
6267.62,8.229618
6294.619,8.256176
6321.618,8.260038
6348.617,8.197613
6375.616,8.059547
6402.615,7.968965
6429.614,7.793921
6456.613,7.539246
6483.612,6.835929
6510.61,7.106051
6537.609,7.25108
6564.608,7.333189
6591.607,7.406214
6618.606,7.397347
6645.605,7.324164
6672.604,7.214028
6699.604,7.0585
6726.603,6.860593
6753.602,6.672909
6780.601,6.440085
6807.6,6.089364
6834.599,5.740513
6861.598,5.559171
6888.597,5.333578
6915.596,5.127987
6942.594,4.838428
6969.593,4.751653
6996.592,4.693217
7023.591,4.56734
7050.59,4.513813
7077.589,4.56588
7104.588,4.86477
7131.587,5.117147
7158.586,4.62167
7185.585,4.417572
7212.584,5.229195
7239.583,5.989043
7266.582,6.683221
7293.581,7.370141
7320.58,7.967736
7347.579,8.324267
7374.578,8.649654
7401.577,8.879904
7428.576,8.974224
7455.575,9.028147
7482.574,9.051611
7509.573,9.041753
7536.572,9.023927
7563.571,8.978692
7590.57,8.921896
7617.569,8.836241
7644.568,8.741885
7671.566,8.645928
7698.565,8.578152
7725.564,8.50708
7752.563,8.447482
7779.563,8.356814
7806.562,8.291135
7833.561,8.201306
7860.56,8.091397
7887.559,7.932357
7914.558,7.750016
7941.557,7.521815
7968.556,7.26608
7995.555,6.965707
8022.554,6.637927
8049.553,6.25568
8076.552,5.846566
8103.551,5.395644
8130.55,4.916713
8157.548,4.447952
8184.547,4.056839
8211.546,3.867752
8238.545,3.869195
8265.544,3.919147
8292.543,4.104565
8319.542,4.353227
8346.541,4.661808
8373.54,5.010828
8400.539,5.282102
8427.538,5.371564
8454.537,5.790668
8481.536,6.211872
8508.535,6.541095
8535.534,6.695782
8562.533,6.421792
8589.532,6.907113
8616.531,7.615971
8643.53,8.162243
8670.529,8.491253
8697.528,8.788776
8724.527,9.161541
8751.525,9.496997
8778.524,9.742537
8805.523,9.908654
8832.522,10.01475
8859.521,10.03649
8886.521,10.0754
8913.52,10.08231
8940.519,10.07082
8967.518,10.0746
8994.517,10.10599
9021.516,10.11146
9048.515,10.13478
9075.514,10.16317
9102.513,10.16442
9129.512,10.16859
9156.511,10.14868
9183.51,10.12148
9210.509,10.09402
9237.508,10.06139
9264.507,10.03716
9291.506,10.00683
9318.504,10.01641
9345.503,10.01402
9372.502,9.97708
9399.501,9.932229
9426.5,9.880806
9453.499,9.8002
9480.498,9.745996
9507.497,9.715237
9534.496,9.662835
9561.495,9.61769
9588.494,9.578591
9615.493,9.589579
9642.492,9.674129
9669.491,9.786125
9696.49,9.888056
9723.489,9.981321
9750.488,10.07916
9777.487,10.14496
9804.486,10.13052
9831.485,10.15727
9858.484,10.24731
9885.482,10.33434
9912.481,10.46499
9939.48,10.53158
9966.479,10.61515
9993.479,10.67072
10020.48,10.73055
10047.48,10.74896
10074.48,10.80877
10101.47,10.82503
10128.47,10.88661
10155.47,10.89756
10182.47,10.88707
10209.47,10.94392
10236.47,10.93662
10263.47,10.95366
10290.47,10.92886
10317.47,10.89239
10344.47,10.87117
10371.46,10.86622
10398.46,10.85106
10425.46,10.80763
10452.46,10.78548
10479.46,10.73265
10506.46,10.63634
10533.46,10.51276
10560.46,10.3631
10587.46,10.17782
10614.46,9.840116
10641.45,9.49773
10668.45,9.168211
10695.45,8.886455
10722.45,8.838469
10749.45,8.894457
10776.45,9.016658
10803.45,9.282376
10830.45,9.51643
10857.45,9.704438
10884.45,9.953801
10911.44,10.18775
10938.44,10.40872
10965.44,10.56915
10992.44,10.71345
11019.44,10.86295
11046.44,10.97432
11073.44,11.07282
11100.44,11.03499
11127.44,11.04758
11154.43,11.24848
11181.43,11.22565
11208.43,11.31701
11235.43,11.40483
11262.43,11.49198
11289.43,11.48468
11316.43,11.62408
11343.43,11.62169
11370.43,11.59725
11397.43,11.66352
11424.42,11.7141
11451.42,11.80908
11478.42,11.75382
11505.42,11.67037
11532.42,11.87832
11559.42,11.92749
11586.42,11.78973
11613.42,11.97402
11640.42,11.94844
11667.42,11.95688
11694.41,11.8402
11721.41,11.86279
11748.41,11.89187
11775.41,12.01255
11802.41,11.90782
11829.41,12.00799
11856.41,11.9044
11883.41,12.1431
11910.41,11.95403
11937.41,12.04419
11964.4,12.07803
11991.4,11.89561
11999.12,12.05703