File: Data/NIR/H0003LDPE_4.csv
Wavenumber,Intensity
3999.706,2.814378
4026.705,2.827139
4053.704,2.841438
4080.703,2.854473
4107.702,2.856515
4134.701,2.869436
4161.7,2.871262
4188.699,2.889925
4215.698,2.922421
4242.697,2.940193
4269.696,2.955519
4296.694,2.968251
4323.693,2.958743
4350.692,2.974599
4377.691,2.980395
4404.69,2.98839
4431.689,3.040283
4458.688,3.160951
4485.688,3.30124
4512.687,3.470354
4539.686,3.659127
4566.685,3.86524
4593.683,4.013263
4620.682,4.105685
4647.681,4.159548
4674.68,4.131804
4701.679,4.232742
4728.678,4.170094
4755.677,4.115829
4782.676,4.004979
4809.675,3.939525
4836.674,3.817919
4863.673,3.683716
4890.672,3.694668
4917.671,3.7219
4944.67,3.702988
4971.669,3.572053
4998.668,3.683009
5025.667,3.736556
5052.666,3.754923
5079.665,3.729176
5106.664,3.718323
5133.663,3.7495
5160.662,3.711477
5187.661,3.700238
5214.66,3.7054
5241.659,3.722753
5268.658,3.736092
5295.657,3.726871
5322.656,3.757497
5349.655,3.690798
5376.654,3.586334
5403.652,3.486829
5430.651,3.384138
5457.65,3.350091
5484.649,3.304111
5511.648,3.300306
5538.647,3.297757
5565.646,3.310236
5592.646,3.361242
5619.645,3.292305
5646.644,3.211757
5673.643,3.172543
5700.642,3.230292
5727.641,3.228753
5754.639,3.167906
5781.638,3.161212
5808.637,3.170697
5835.636,3.206822
5862.635,3.386815
5889.634,3.97625
5916.633,4.528859
5943.632,5.564424
5970.631,6.346908
5997.63,6.995
6024.629,7.488634
6051.628,7.847901
6078.627,8.09028
6105.626,8.239429
6132.625,8.404593
6159.624,8.616398
6186.623,8.804874
6213.622,8.916438
6240.621,8.992599
6267.62,9.034595
6294.619,9.060305
6321.618,9.064754
6348.617,8.998924
6375.616,8.8456
6402.615,8.752846
6429.614,8.551336
6456.613,8.268769
6483.612,7.493679
6510.61,7.767858
6537.609,7.917706
6564.608,7.999522
6591.607,8.0723
6618.606,8.065989
6645.605,7.985464
6672.604,7.852879
6699.604,7.671481
6726.603,7.447288
6753.602,7.227568
6780.601,6.956761
6807.6,6.556781
6834.599,6.160982
6861.598,5.938659
6888.597,5.65944
6915.596,5.408562
6942.594,5.059916
6969.593,4.947044
6996.592,4.878613
7023.591,4.73093
7050.59,4.64604
7077.589,4.702939
7104.588,5.073064
7131.587,5.372763
7158.586,4.767135
7185.585,4.516228
7212.584,5.473701
7239.583,6.343775
7266.582,7.15623
7293.581,7.939747
7320.58,8.617664
7347.579,9.014516
7374.578,9.403652
7401.577,9.686347
7428.576,9.800211
7455.575,9.863817
7482.574,9.887789
7509.573,9.882794
7536.572,9.85578
7563.571,9.801512
7590.57,9.733883
7617.569,9.654647
7644.568,9.534869
7671.566,9.432807
7698.565,9.35899
7725.564,9.279806
7752.563,9.193937
7779.563,9.100671
7806.562,9.019911
7833.561,8.915115
7860.56,8.779262
7887.559,8.60318
7914.558,8.392532
7941.557,8.143342
7968.556,7.851157
7995.555,7.501651
8022.554,7.128121
8049.553,6.689759
8076.552,6.218203
8103.551,5.677079
8130.55,5.091028
8157.548,4.521306
8184.547,4.009407
8211.546,3.779899
8238.545,3.759302
8265.544,3.829707
8292.543,4.059766
8319.542,4.363368
8346.541,4.729324
8373.54,5.139008
8400.539,5.444499
8427.538,5.577984
8454.537,6.079438
8481.536,6.552002
8508.535,6.931063
8535.534,7.114159
8562.533,6.830438
8589.532,7.346055
8616.531,8.114569
8643.53,8.721228
8670.529,9.093114
8697.528,9.401598
8724.527,9.816002
8751.525,10.19322
8778.524,10.45995
8805.523,10.65061
8832.522,10.75228
8859.521,10.78971
8886.521,10.83535
8913.52,10.83257
8940.519,10.82344
8967.518,10.81315
8994.517,10.82962
9021.516,10.85599
9048.515,10.87864
9075.514,10.89141
9102.513,10.89415
9129.512,10.87878
9156.511,10.8495
9183.51,10.82105
9210.509,10.79657
9237.508,10.75524
9264.507,10.71259
9291.506,10.66926
9318.504,10.67709
9345.503,10.65759
9372.502,10.62933
9399.501,10.5661
9426.5,10.49518
9453.499,10.41081
9480.498,10.35603
9507.497,10.29287
9534.496,10.23252
9561.495,10.16466
9588.494,10.13034
9615.493,10.15208
9642.492,10.23327
9669.491,10.33788
9696.49,10.41693
9723.489,10.52727
9750.488,10.60442
9777.487,10.67961
9804.486,10.67
9831.485,10.67347
9858.484,10.78666
9885.482,10.87715
9912.481,10.97067
9939.48,11.05842
9966.479,11.13416
9993.479,11.17115
10020.48,11.21273
10047.48,11.25093
10074.48,11.29002
10101.47,11.34418
10128.47,11.3642
10155.47,11.36747
10182.47,11.3536
10209.47,11.38852
10236.47,11.37825
10263.47,11.40506
10290.47,11.35672
10317.47,11.31922
10344.47,11.33395
10371.46,11.30399
10398.46,11.27116
10425.46,11.22142
10452.46,11.1699
10479.46,11.14759
10506.46,11.01299
10533.46,10.85879
10560.46,10.70089
10587.46,10.47203
10614.46,10.16579
10641.45,9.759016
10668.45,9.408105
10695.45,9.139179
10722.45,9.042794
10749.45,9.118523
10776.45,9.231118
10803.45,9.487584
10830.45,9.694139
10857.45,9.946795
10884.45,10.17245
10911.44,10.42579
10938.44,10.58875
10965.44,10.78107
10992.44,10.95009
11019.44,11.07275
11046.44,11.20974
11073.44,11.3076
11100.44,11.26819
11127.44,11.26652
11154.43,11.42199
11181.43,11.41239
11208.43,11.50469
11235.43,11.64349
11262.43,11.70059
11289.43,11.62497
11316.43,11.77697
11343.43,11.86778
11370.43,11.80231
11397.43,11.80244
11424.42,11.95016
11451.42,11.94101
11478.42,11.83581
11505.42,11.81383
11532.42,12.1105
11559.42,11.98105
11586.42,11.88979
11613.42,11.9709
11640.42,12.03852
11667.42,12.10996
11694.41,12.0012
11721.41,12.01982
11748.41,12.09753
11775.41,12.07405
11802.41,12.0215
11829.41,12.16379
11856.41,12.12022
11883.41,12.17405
11910.41,12.06544
11937.41,12.14367
11964.4,12.06046
11991.4,11.97367
11999.12,11.98409