File: Data/NIR/H0008HDPE_5.csv
Wavenumber,Intensity
3999.706,3.024316
4026.705,3.001548
4053.704,3.014596
4080.703,3.008748
4107.702,2.9959
4134.701,3.002025
4161.7,3.006141
4188.699,3.023189
4215.698,3.068663
4242.697,3.084782
4269.696,3.125079
4296.694,3.159894
4323.693,3.048306
4350.692,3.138631
4377.691,3.207355
4404.69,3.376779
4431.689,3.631621
4458.688,3.890659
4485.688,4.138817
4512.687,4.460147
4539.686,4.759755
4566.685,5.100227
4593.683,5.298269
4620.682,5.41196
4647.681,5.481573
4674.68,5.386715
4701.679,5.578185
4728.678,5.432734
4755.677,5.371869
4782.676,5.156984
4809.675,5.049285
4836.674,4.86229
4863.673,4.637399
4890.672,4.699563
4917.671,4.753967
4944.67,4.732104
4971.669,4.527907
4998.668,4.755366
5025.667,4.873349
5052.666,4.894549
5079.665,4.845733
5106.664,4.824401
5133.663,4.898069
5160.662,4.80826
5187.661,4.803992
5214.66,4.824913
5241.659,4.882744
5268.658,4.922009
5295.657,4.906354
5322.656,5.004252
5349.655,4.839129
5376.654,4.634379
5403.652,4.491756
5430.651,4.25093
5457.65,4.213728
5484.649,4.096662
5511.648,4.129522
5538.647,4.133093
5565.646,4.160481
5592.646,4.355392
5619.645,4.147772
5646.644,3.860146
5673.643,3.60099
5700.642,3.978899
5727.641,3.819396
5754.639,3.507113
5781.638,3.365092
5808.637,3.536211
5835.636,3.841768
5862.635,4.832658
5889.634,6.304056
5916.633,7.115062
5943.632,7.781597
5970.631,8.711193
5997.63,9.697252
6024.629,10.46347
6051.628,11.00173
6078.627,11.34104
6105.626,11.22208
6132.625,11.66864
6159.624,11.97194
6186.623,12.18085
6213.622,12.30094
6240.621,12.4052
6267.62,12.44911
6294.619,12.49403
6321.618,12.50031
6348.617,12.37551
6375.616,12.11327
6402.615,11.96046
6429.614,11.65917
6456.613,11.20061
6483.612,9.908514
6510.61,10.58619
6537.609,10.91516
6564.608,11.11718
6591.607,11.29644
6618.606,11.31281
6645.605,11.23149
6672.604,11.06834
6699.604,10.8239
6726.603,10.4916
6753.602,10.2097
6780.601,9.839327
6807.6,9.190916
6834.599,8.540608
6861.598,8.26736
6888.597,7.92014
6915.596,7.60399
6942.594,7.048554
6969.593,6.944682
6996.592,6.844743
7023.591,6.560641
7050.59,6.53733
7077.589,6.776492
7104.588,7.350861
7131.587,7.834154
7158.586,6.802113
7185.585,6.468444
7212.584,8.263735
7239.583,9.69599
7266.582,11.00429
7293.581,12.17184
7320.58,13.18995
7347.579,13.82296
7374.578,14.1411
7401.577,14.31763
7428.576,14.42468
7455.575,14.51722
7482.574,14.56342
7509.573,14.53779
7536.572,14.50966
7563.571,14.42523
7590.57,14.33518
7617.569,14.20662
7644.568,14.02429
7671.566,13.87951
7698.565,13.78453
7725.564,13.68144
7752.563,13.58487
7779.563,13.46589
7806.562,13.37882
7833.561,13.24413
7860.56,13.05478
7887.559,12.80245
7914.558,12.50331
7941.557,12.14678
7968.556,11.70356
7995.555,11.21094
8022.554,10.63772
8049.553,9.981024
8076.552,9.248823
8103.551,8.441418
8130.55,7.531397
8157.548,6.579158
8184.547,5.661852
8211.546,5.166167
8238.545,5.195066
8265.544,5.38108
8292.543,5.920448
8319.542,6.60216
8346.541,7.347923
8373.54,8.304846
8400.539,8.917439
8427.538,8.831226
8454.537,9.637529
8481.536,10.40818
8508.535,11.02545
8535.534,11.23625
8562.533,10.40711
8589.532,11.48855
8616.531,13.04314
8643.53,14.05522
8670.529,14.68495
8697.528,15.23554
8724.527,15.80467
8751.525,16.37154
8778.524,16.78858
8805.523,17.02374
8832.522,17.16786
8859.521,17.23746
8886.521,17.26832
8913.52,17.24224
8940.519,17.22488
8967.518,17.21735
8994.517,17.28536
9021.516,17.35164
9048.515,17.40524
9075.514,17.45674
9102.513,17.47493
9129.512,17.48432
9156.511,17.45323
9183.51,17.41441
9210.509,17.36906
9237.508,17.33844
9264.507,17.28127
9291.506,17.23706
9318.504,17.29481
9345.503,17.28181
9372.502,17.22032
9399.501,17.11503
9426.5,17.02118
9453.499,16.86547
9480.498,16.7408
9507.497,16.68749
9534.496,16.59714
9561.495,16.48079
9588.494,16.38068
9615.493,16.4636
9642.492,16.63126
9669.491,16.8753
9696.49,17.08205
9723.489,17.32964
9750.488,17.52831
9777.487,17.64947
9804.486,17.6559
9831.485,17.6797
9858.484,17.90553
9885.482,18.13939
9912.481,18.34775
9939.48,18.4935
9966.479,18.66613
9993.479,18.74504
10020.48,18.8445
10047.48,18.98006
10074.48,19.0276
10101.47,19.10602
10128.47,19.15826
10155.47,19.18338
10182.47,19.20316
10209.47,19.24566
10236.47,19.21161
10263.47,19.24683
10290.47,19.19432
10317.47,19.13846
10344.47,19.17977
10371.46,19.14935
10398.46,19.10462
10425.46,19.05272
10452.46,18.98734
10479.46,18.90634
10506.46,18.71718
10533.46,18.44859
10560.46,18.12891
10587.46,17.65792
10614.46,17.14427
10641.45,16.45509
10668.45,15.77366
10695.45,15.21657
10722.45,15.08586
10749.45,15.21685
10776.45,15.49221
10803.45,16.06114
10830.45,16.55761
10857.45,17.07302
10884.45,17.60579
10911.44,18.10335
10938.44,18.57717
10965.44,18.9805
10992.44,19.23533
11019.44,19.43561
11046.44,19.56488
11073.44,19.66888
11100.44,19.71849
11127.44,19.71643
11154.43,19.89402
11181.43,20.00988
11208.43,20.27066
11235.43,20.31617
11262.43,20.56162
11289.43,20.61909
11316.43,20.73942
11343.43,20.79638
11370.43,20.8245
11397.43,20.89631
11424.42,21.06127
11451.42,21.14183
11478.42,21.05991
11505.42,21.10472
11532.42,21.35017
11559.42,21.36311
11586.42,21.29572
11613.42,21.37945
11640.42,21.45888
11667.42,21.48136
11694.41,21.48253
11721.41,21.47186
11748.41,21.50727
11775.41,21.33573
11802.41,21.36791
11829.41,21.38419
11856.41,21.44027
11883.41,21.61233
11910.41,21.49623
11937.41,21.6659
11964.4,21.71811
11991.4,21.53583
11999.12,21.53337