File: Data/NIR/H0007HDPE_4.csv
Wavenumber,Intensity
3999.706,3.14336
4026.705,3.107404
4053.704,3.116838
4080.703,3.105618
4107.702,3.091757
4134.701,3.098049
4161.7,3.101268
4188.699,3.121948
4215.698,3.16106
4242.697,3.175552
4269.696,3.214381
4296.694,3.249728
4323.693,3.158818
4350.692,3.228845
4377.691,3.305118
4404.69,3.460411
4431.689,3.721646
4458.688,4.023766
4485.688,4.345711
4512.687,4.703707
4539.686,5.050074
4566.685,5.446796
4593.683,5.687101
4620.682,5.811085
4647.681,5.882978
4674.68,5.761896
4701.679,6.003827
4728.678,5.838136
4755.677,5.701538
4782.676,5.433039
4809.675,5.29346
4836.674,5.056923
4863.673,4.783799
4890.672,4.842483
4917.671,4.896052
4944.67,4.862369
4971.669,4.613188
4998.668,4.862907
5025.667,4.99197
5052.666,5.011332
5079.665,4.951519
5106.664,4.918201
5133.663,4.991864
5160.662,4.886986
5187.661,4.874473
5214.66,4.894104
5241.659,4.956045
5268.658,4.992944
5295.657,4.96195
5322.656,5.063846
5349.655,4.879582
5376.654,4.642415
5403.652,4.465915
5430.651,4.195867
5457.65,4.149285
5484.649,4.021849
5511.648,4.045257
5538.647,4.048467
5565.646,4.073786
5592.646,4.265628
5619.645,4.047861
5646.644,3.765876
5673.643,3.548949
5700.642,3.86195
5727.641,3.722497
5754.639,3.470846
5781.638,3.382195
5808.637,3.488278
5835.636,3.725845
5862.635,4.636909
5889.634,6.243953
5916.633,7.191315
5943.632,8.113832
5970.631,9.157695
5997.63,10.23337
6024.629,11.07045
6051.628,11.65488
6078.627,12.04704
6105.626,12.27917
6132.625,12.50866
6159.624,12.69485
6186.623,12.87494
6213.622,12.99766
6240.621,13.08603
6267.62,13.11739
6294.619,13.14573
6321.618,13.1458
6348.617,12.99618
6375.616,12.71193
6402.615,12.53861
6429.614,12.19868
6456.613,11.70001
6483.612,10.30206
6510.61,11.00485
6537.609,11.33877
6564.608,11.53486
6591.607,11.7071
6618.606,11.70346
6645.605,11.60087
6672.604,11.4039
6699.604,11.13324
6726.603,10.76473
6753.602,10.44935
6780.601,10.03563
6807.6,9.330454
6834.599,8.623009
6861.598,8.31263
6888.597,7.919452
6915.596,7.573876
6942.594,6.955738
6969.593,6.83296
6996.592,6.719081
7023.591,6.418324
7050.59,6.362406
7077.589,6.606165
7104.588,7.234297
7131.587,7.734933
7158.586,6.619713
7185.585,6.258307
7212.584,8.134108
7239.583,9.631956
7266.582,10.96939
7293.581,12.18081
7320.58,13.22371
7347.579,13.84655
7374.578,14.23062
7401.577,14.42107
7428.576,14.51615
7455.575,14.61444
7482.574,14.6504
7509.573,14.6188
7536.572,14.56526
7563.571,14.47402
7590.57,14.3644
7617.569,14.22249
7644.568,14.02388
7671.566,13.86442
7698.565,13.7504
7725.564,13.63947
7752.563,13.53389
7779.563,13.39204
7806.562,13.2873
7833.561,13.1343
7860.56,12.93733
7887.559,12.65895
7914.558,12.33985
7941.557,11.96105
7968.556,11.49987
7995.555,10.99094
8022.554,10.38859
8049.553,9.698793
8076.552,8.921836
8103.551,8.097133
8130.55,7.132068
8157.548,6.168695
8184.547,5.242127
8211.546,4.761922
8238.545,4.79289
8265.544,4.956802
8292.543,5.462778
8319.542,6.131567
8346.541,6.8613
8373.54,7.772461
8400.539,8.381146
8427.538,8.33074
8454.537,9.15832
8481.536,9.917651
8508.535,10.52958
8535.534,10.76561
8562.533,9.958042
8589.532,11.00601
8616.531,12.52957
8643.53,13.5132
8670.529,14.10857
8697.528,14.65157
8724.527,15.23545
8751.525,15.76812
8778.524,16.14499
8805.523,16.37215
8832.522,16.50599
8859.521,16.54923
8886.521,16.58089
8913.52,16.55634
8940.519,16.53868
8967.518,16.51335
8994.517,16.55321
9021.516,16.5863
9048.515,16.63169
9075.514,16.67155
9102.513,16.68453
9129.512,16.67751
9156.511,16.60979
9183.51,16.57714
9210.509,16.51924
9237.508,16.48275
9264.507,16.40695
9291.506,16.36463
9318.504,16.39998
9345.503,16.37205
9372.502,16.30443
9399.501,16.22715
9426.5,16.09327
9453.499,15.94873
9480.498,15.84159
9507.497,15.75835
9534.496,15.65656
9561.495,15.55286
9588.494,15.46765
9615.493,15.51552
9642.492,15.65866
9669.491,15.88493
9696.49,16.07892
9723.489,16.28301
9750.488,16.45119
9777.487,16.5377
9804.486,16.54088
9831.485,16.571
9858.484,16.74879
9885.482,16.94658
9912.481,17.14231
9939.48,17.26394
9966.479,17.40251
9993.479,17.49467
10020.48,17.57664
10047.48,17.67585
10074.48,17.71245
10101.47,17.75915
10128.47,17.82927
10155.47,17.83949
10182.47,17.83628
10209.47,17.86672
10236.47,17.8218
10263.47,17.86051
10290.47,17.83407
10317.47,17.73929
10344.47,17.77118
10371.46,17.73772
10398.46,17.6748
10425.46,17.64902
10452.46,17.56399
10479.46,17.43628
10506.46,17.30027
10533.46,17.02637
10560.46,16.76484
10587.46,16.3091
10614.46,15.84219
10641.45,15.12233
10668.45,14.50109
10695.45,13.9761
10722.45,13.83957
10749.45,13.96609
10776.45,14.24193
10803.45,14.77434
10830.45,15.22605
10857.45,15.66011
10884.45,16.20383
10911.44,16.59953
10938.44,17.02862
10965.44,17.32312
10992.44,17.59222
11019.44,17.76435
11046.44,17.90245
11073.44,17.99515
11100.44,18.08885
11127.44,18.06396
11154.43,18.22208
11181.43,18.34214
11208.43,18.48519
11235.43,18.6174
11262.43,18.73442
11289.43,18.77562
11316.43,18.87021
11343.43,19.01453
11370.43,18.99297
11397.43,18.9645
11424.42,19.14088
11451.42,19.19886
11478.42,19.17396
11505.42,19.17023
11532.42,19.34646
11559.42,19.38986
11586.42,19.34595
11613.42,19.31937
11640.42,19.52255
11667.42,19.55369
11694.41,19.52241
11721.41,19.449
11748.41,19.35803
11775.41,19.35509
11802.41,19.3531
11829.41,19.41762
11856.41,19.34189
11883.41,19.46301
11910.41,19.32105
11937.41,19.52714
11964.4,19.42341
11991.4,19.35177
11999.12,19.36376