File: Data/NIR/H0003LDPE_3.csv
Wavenumber,Intensity
3999.706,2.623198
4026.705,2.638616
4053.704,2.651299
4080.703,2.655449
4107.702,2.663662
4134.701,2.665529
4161.7,2.676715
4188.699,2.689744
4215.698,2.722069
4242.697,2.742927
4269.696,2.760913
4296.694,2.77246
4323.693,2.754126
4350.692,2.778446
4377.691,2.785353
4404.69,2.799791
4431.689,2.870692
4458.688,3.037838
4485.688,3.225486
4512.687,3.443962
4539.686,3.675128
4566.685,3.932334
4593.683,4.107636
4620.682,4.21855
4647.681,4.278311
4674.68,4.249518
4701.679,4.359733
4728.678,4.286637
4755.677,4.214314
4782.676,4.087127
4809.675,4.004244
4836.674,3.853629
4863.673,3.680188
4890.672,3.70575
4917.671,3.731537
4944.67,3.70032
4971.669,3.540611
4998.668,3.675684
5025.667,3.748614
5052.666,3.762118
5079.665,3.736265
5106.664,3.718148
5133.663,3.755419
5160.662,3.711163
5187.661,3.69926
5214.66,3.705196
5241.659,3.730289
5268.658,3.74111
5295.657,3.728272
5322.656,3.761524
5349.655,3.675801
5376.654,3.536608
5403.652,3.413592
5430.651,3.269863
5457.65,3.231586
5484.649,3.170837
5511.648,3.172362
5538.647,3.166325
5565.646,3.179381
5592.646,3.247518
5619.645,3.150465
5646.644,3.037354
5673.643,2.983981
5700.642,3.068147
5727.641,3.061137
5754.639,2.978464
5781.638,2.967439
5808.637,2.980064
5835.636,3.031654
5862.635,3.267378
5889.634,4.026493
5916.633,4.703305
5943.632,5.890967
5970.631,6.760067
5997.63,7.460837
6024.629,7.996182
6051.628,8.3725
6078.627,8.630994
6105.626,8.782458
6132.625,8.960799
6159.624,9.179479
6186.623,9.377087
6213.622,9.499811
6240.621,9.576937
6267.62,9.617373
6294.619,9.643035
6321.618,9.648488
6348.617,9.586401
6375.616,9.43375
6402.615,9.322179
6429.614,9.126198
6456.613,8.828549
6483.612,8.006926
6510.61,8.301952
6537.609,8.452676
6564.608,8.54193
6591.607,8.619933
6618.606,8.604078
6645.605,8.523232
6672.604,8.395186
6699.604,8.195602
6726.603,7.960285
6753.602,7.724167
6780.601,7.431532
6807.6,7.001796
6834.599,6.55477
6861.598,6.317326
6888.597,6.008319
6915.596,5.73419
6942.594,5.324504
6969.593,5.190524
6996.592,5.115272
7023.591,4.936009
7050.59,4.837533
7077.589,4.896174
7104.588,5.345699
7131.587,5.683253
7158.586,5.006076
7185.585,4.666399
7212.584,5.794475
7239.583,6.795751
7266.582,7.642569
7293.581,8.48116
7320.58,9.209214
7347.579,9.608757
7374.578,10.02942
7401.577,10.31223
7428.576,10.43831
7455.575,10.50464
7482.574,10.53112
7509.573,10.5158
7536.572,10.49387
7563.571,10.44952
7590.57,10.38109
7617.569,10.2871
7644.568,10.16482
7671.566,10.0542
7698.565,9.991159
7725.564,9.899928
7752.563,9.808614
7779.563,9.706464
7806.562,9.62356
7833.561,9.509549
7860.56,9.367232
7887.559,9.190404
7914.558,8.961491
7941.557,8.699857
7968.556,8.390644
7995.555,8.030535
8022.554,7.602587
8049.553,7.133565
8076.552,6.603803
8103.551,6.010667
8130.55,5.349729
8157.548,4.660985
8184.547,4.052835
8211.546,3.732687
8238.545,3.697438
8265.544,3.78723
8292.543,4.071439
8319.542,4.462162
8346.541,4.890869
8373.54,5.368315
8400.539,5.705911
8427.538,5.878468
8454.537,6.454671
8481.536,6.971683
8508.535,7.370451
8535.534,7.58142
8562.533,7.287438
8589.532,7.852676
8616.531,8.67387
8643.53,9.29351
8670.529,9.671538
8697.528,10.01575
8724.527,10.44365
8751.525,10.84931
8778.524,11.1265
8805.523,11.31085
8832.522,11.41627
8859.521,11.46242
8886.521,11.49303
8913.52,11.50016
8940.519,11.46973
8967.518,11.46798
8994.517,11.48182
9021.516,11.50751
9048.515,11.52717
9075.514,11.50926
9102.513,11.54533
9129.512,11.50486
9156.511,11.50362
9183.51,11.4559
9210.509,11.40693
9237.508,11.37354
9264.507,11.35126
9291.506,11.30894
9318.504,11.30865
9345.503,11.28252
9372.502,11.23826
9399.501,11.16745
9426.5,11.09938
9453.499,11.02882
9480.498,10.94577
9507.497,10.89582
9534.496,10.84837
9561.495,10.76074
9588.494,10.71447
9615.493,10.72427
9642.492,10.81679
9669.491,10.92815
9696.49,11.00396
9723.489,11.13797
9750.488,11.25173
9777.487,11.28214
9804.486,11.30179
9831.485,11.29755
9858.484,11.40104
9885.482,11.51095
9912.481,11.58625
9939.48,11.71671
9966.479,11.79798
9993.479,11.87362
10020.48,11.86694
10047.48,11.9198
10074.48,12.00842
10101.47,12.05546
10128.47,12.04858
10155.47,12.04922
10182.47,12.04383
10209.47,12.04718
10236.47,12.05058
10263.47,12.04196
10290.47,12.00229
10317.47,11.97619
10344.47,11.94494
10371.46,11.95472
10398.46,11.91417
10425.46,11.9209
10452.46,11.82068
10479.46,11.75766
10506.46,11.66337
10533.46,11.52338
10560.46,11.32544
10587.46,11.08697
10614.46,10.75707
10641.45,10.37192
10668.45,9.976587
10695.45,9.714095
10722.45,9.572556
10749.45,9.657645
10776.45,9.79166
10803.45,10.02213
10830.45,10.24395
10857.45,10.52653
10884.45,10.83855
10911.44,10.97105
10938.44,11.25828
10965.44,11.45859
10992.44,11.59429
11019.44,11.73464
11046.44,11.80535
11073.44,11.92877
11100.44,11.90904
11127.44,11.96643
11154.43,12.00165
11181.43,12.08586
11208.43,12.20548
11235.43,12.31051
11262.43,12.33504
11289.43,12.36883
11316.43,12.32285
11343.43,12.42384
11370.43,12.44924
11397.43,12.50816
11424.42,12.56782
11451.42,12.62901
11478.42,12.71461
11505.42,12.66504
11532.42,12.68618
11559.42,12.69308
11586.42,12.79447
11613.42,12.70871
11640.42,12.79415
11667.42,12.61477
11694.41,12.79537
11721.41,12.68348
11748.41,12.69352
11775.41,12.73233
11802.41,12.67476
11829.41,12.61365
11856.41,12.71804
11883.41,12.77316
11910.41,12.60205
11937.41,12.73854
11964.4,12.8077
11991.4,12.72342
11999.12,12.77386