File: Data/NIR/N1476LDPE_5.csv
Wavenumber,Intensity
3999.706,3.617566
4026.705,3.630804
4053.704,3.651222
4080.703,3.664219
4107.702,3.670515
4134.701,3.678905
4161.7,3.686085
4188.699,3.713311
4215.698,3.761682
4242.697,3.789647
4269.696,3.811203
4296.694,3.827886
4323.693,3.816397
4350.692,3.832319
4377.691,3.85493
4404.69,3.935354
4431.689,4.189884
4458.688,4.483966
4485.688,4.758617
4512.687,5.030504
4539.686,5.303292
4566.685,5.607903
4593.683,5.803586
4620.682,5.917862
4647.681,5.976195
4674.68,5.931972
4701.679,6.080732
4728.678,5.991999
4755.677,5.910865
4782.676,5.760227
4809.675,5.668767
4836.674,5.501655
4863.673,5.300069
4890.672,5.329928
4917.671,5.366723
4944.67,5.332966
4971.669,5.14734
4998.668,5.325777
5025.667,5.43087
5052.666,5.45157
5079.665,5.410318
5106.664,5.395212
5133.663,5.449256
5160.662,5.393305
5187.661,5.381042
5214.66,5.386677
5241.659,5.423555
5268.658,5.452308
5295.657,5.432772
5322.656,5.489895
5349.655,5.377993
5376.654,5.205159
5403.652,5.040367
5430.651,4.848842
5457.65,4.767938
5484.649,4.661214
5511.648,4.664238
5538.647,4.669309
5565.646,4.688943
5592.646,4.821898
5619.645,4.64357
5646.644,4.390427
5673.643,4.200403
5700.642,4.466199
5727.641,4.420074
5754.639,4.140663
5781.638,4.050445
5808.637,4.138642
5835.636,4.346751
5862.635,4.974821
5889.634,6.104532
5916.633,6.862179
5943.632,7.87862
5970.631,8.731817
5997.63,9.458684
6024.629,10.02062
6051.628,10.41861
6078.627,10.69391
6105.626,10.87793
6132.625,11.05421
6159.624,11.22451
6186.623,11.38558
6213.622,11.49262
6240.621,11.57074
6267.62,11.609
6294.619,11.63849
6321.618,11.64178
6348.617,11.57777
6375.616,11.4116
6402.615,11.30826
6429.614,11.09818
6456.613,10.76217
6483.612,9.8891
6510.61,10.25624
6537.609,10.45199
6564.608,10.57125
6591.607,10.68348
6618.606,10.69053
6645.605,10.61433
6672.604,10.48275
6699.604,10.29686
6726.603,10.04289
6753.602,9.81393
6780.601,9.511046
6807.6,9.050753
6834.599,8.571445
6861.598,8.32752
6888.597,8.012082
6915.596,7.732607
6942.594,7.290847
6969.593,7.173337
6996.592,7.079566
7023.591,6.855117
7050.59,6.622867
7077.589,6.805611
7104.588,7.353576
7131.587,7.755659
7158.586,6.97828
7185.585,6.665299
7212.584,7.967196
7239.583,9.047584
7266.582,10.01119
7293.581,10.90396
7320.58,11.65003
7347.579,12.11456
7374.578,12.4558
7401.577,12.68675
7428.576,12.7942
7455.575,12.86281
7482.574,12.89477
7509.573,12.88016
7536.572,12.86055
7563.571,12.81971
7590.57,12.75289
7617.569,12.65239
7644.568,12.5429
7671.566,12.43236
7698.565,12.37129
7725.564,12.28099
7752.563,12.21373
7779.563,12.12688
7806.562,12.03819
7833.561,11.94239
7860.56,11.79659
7887.559,11.60119
7914.558,11.38154
7941.557,11.12146
7968.556,10.77158
7995.555,10.40406
8022.554,9.968257
8049.553,9.456275
8076.552,8.888413
8103.551,8.241608
8130.55,7.50864
8157.548,6.739317
8184.547,6.006315
8211.546,5.588517
8238.545,5.574192
8265.544,5.716453
8292.543,6.102144
8319.542,6.609808
8346.541,7.150339
8373.54,7.743821
8400.539,8.177275
8427.538,8.293198
8454.537,8.913825
8481.536,9.485836
8508.535,9.920761
8535.534,10.13251
8562.533,9.7051
8589.532,10.36847
8616.531,11.3405
8643.53,12.05448
8670.529,12.47455
8697.528,12.83606
8724.527,13.2818
8751.525,13.67162
8778.524,13.95997
8805.523,14.15385
8832.522,14.24391
8859.521,14.30159
8886.521,14.31802
8913.52,14.32968
8940.519,14.32362
8967.518,14.33663
8994.517,14.33344
9021.516,14.38281
9048.515,14.39487
9075.514,14.42498
9102.513,14.43927
9129.512,14.43287
9156.511,14.39847
9183.51,14.37259
9210.509,14.34883
9237.508,14.3021
9264.507,14.27233
9291.506,14.22408
9318.504,14.26501
9345.503,14.24766
9372.502,14.20621
9399.501,14.13904
9426.5,14.0661
9453.499,13.97531
9480.498,13.8841
9507.497,13.83847
9534.496,13.78867
9561.495,13.72021
9588.494,13.67815
9615.493,13.71552
9642.492,13.78671
9669.491,13.94533
9696.49,14.02816
9723.489,14.18899
9750.488,14.26955
9777.487,14.33441
9804.486,14.34594
9831.485,14.35389
9858.484,14.4675
9885.482,14.61561
9912.481,14.68561
9939.48,14.76875
9966.479,14.85449
9993.479,14.93061
10020.48,14.97269
10047.48,15.05237
10074.48,15.1051
10101.47,15.13716
10128.47,15.15197
10155.47,15.15292
10182.47,15.15884
10209.47,15.17162
10236.47,15.17567
10263.47,15.17173
10290.47,15.08883
10317.47,15.03558
10344.47,15.02631
10371.46,15.05614
10398.46,15.02893
10425.46,15.05017
10452.46,14.9683
10479.46,14.93673
10506.46,14.80223
10533.46,14.70092
10560.46,14.46709
10587.46,14.19744
10614.46,13.79816
10641.45,13.40702
10668.45,12.97779
10695.45,12.54067
10722.45,12.52211
10749.45,12.52831
10776.45,12.73305
10803.45,13.09848
10830.45,13.36927
10857.45,13.64096
10884.45,13.91536
10911.44,14.23263
10938.44,14.44649
10965.44,14.70378
10992.44,14.91582
11019.44,15.06419
11046.44,15.15144
11073.44,15.20261
11100.44,15.26716
11127.44,15.25433
11154.43,15.38843
11181.43,15.45133
11208.43,15.52538
11235.43,15.53668
11262.43,15.69118
11289.43,15.71176
11316.43,15.70371
11343.43,15.79081
11370.43,15.8496
11397.43,15.80816
11424.42,15.88229
11451.42,16.04332
11478.42,15.83918
11505.42,16.01647
11532.42,16.13748
11559.42,16.03508
11586.42,16.0625
11613.42,16.22198
11640.42,16.07405
11667.42,16.13581
11694.41,16.05745
11721.41,16.26703
11748.41,16.06888
11775.41,16.11775
11802.41,16.06167
11829.41,16.11148
11856.41,15.97482
11883.41,16.06148
11910.41,15.97314
11937.41,16.09641
11964.4,16.00949
11991.4,15.96248
11999.12,16.15602