File: Data/NIR/N1473LDPE_2.csv
Wavenumber,Intensity
3999.706,2.932982
4026.705,2.949682
4053.704,2.963115
4080.703,2.969763
4107.702,2.976054
4134.701,2.980689
4161.7,2.989865
4188.699,3.004679
4215.698,3.043214
4242.697,3.062896
4269.696,3.085988
4296.694,3.100241
4323.693,3.075866
4350.692,3.105408
4377.691,3.115596
4404.69,3.139824
4431.689,3.222854
4458.688,3.354988
4485.688,3.496876
4512.687,3.665237
4539.686,3.838187
4566.685,4.039179
4593.683,4.183118
4620.682,4.269605
4647.681,4.322649
4674.68,4.298469
4701.679,4.398818
4728.678,4.34552
4755.677,4.29313
4782.676,4.195436
4809.675,4.13576
4836.674,4.021155
4863.673,3.890112
4890.672,3.913265
4917.671,3.937643
4944.67,3.913518
4971.669,3.796743
4998.668,3.900901
5025.667,3.95829
5052.666,3.972046
5079.665,3.955537
5106.664,3.943206
5133.663,3.9749
5160.662,3.941145
5187.661,3.935199
5214.66,3.937958
5241.659,3.961083
5268.658,3.968404
5295.657,3.963971
5322.656,3.993375
5349.655,3.927531
5376.654,3.822932
5403.652,3.731957
5430.651,3.619309
5457.65,3.585268
5484.649,3.535857
5511.648,3.539847
5538.647,3.537178
5565.646,3.549036
5592.646,3.605968
5619.645,3.521676
5646.644,3.419005
5673.643,3.361771
5700.642,3.452568
5727.641,3.447735
5754.639,3.346588
5781.638,3.317191
5808.637,3.345902
5835.636,3.419257
5862.635,3.64146
5889.634,4.261944
5916.633,4.813118
5943.632,5.792348
5970.631,6.557953
5997.63,7.201664
6024.629,7.713806
6051.628,8.084043
6078.627,8.339975
6105.626,8.500529
6132.625,8.67016
6159.624,8.88636
6186.623,9.084718
6213.622,9.211078
6240.621,9.288622
6267.62,9.326252
6294.619,9.361208
6321.618,9.368952
6348.617,9.307243
6375.616,9.149243
6402.615,9.046802
6429.614,8.844312
6456.613,8.552062
6483.612,7.7528
6510.61,8.044064
6537.609,8.192323
6564.608,8.28047
6591.607,8.3653
6618.606,8.356133
6645.605,8.280996
6672.604,8.159219
6699.604,7.973225
6726.603,7.739038
6753.602,7.519958
6780.601,7.247221
6807.6,6.844471
6834.599,6.436924
6861.598,6.218327
6888.597,5.953838
6915.596,5.70372
6942.594,5.35928
6969.593,5.259375
6996.592,5.189163
7023.591,5.027084
7050.59,4.954494
7077.589,5.004519
7104.588,5.392724
7131.587,5.691663
7158.586,5.096884
7185.585,4.820973
7212.584,5.798341
7239.583,6.697883
7266.582,7.515584
7293.581,8.316907
7320.58,9.052398
7347.579,9.466535
7374.578,9.882012
7401.577,10.18958
7428.576,10.31702
7455.575,10.38599
7482.574,10.42101
7509.573,10.40854
7536.572,10.38373
7563.571,10.332
7590.57,10.26688
7617.569,10.17061
7644.568,10.04705
7671.566,9.934258
7698.565,9.87685
7725.564,9.784579
7752.563,9.694181
7779.563,9.592161
7806.562,9.504657
7833.561,9.398363
7860.56,9.250601
7887.559,9.06786
7914.558,8.852004
7941.557,8.58392
7968.556,8.278736
7995.555,7.932063
8022.554,7.537056
8049.553,7.078048
8076.552,6.598907
8103.551,6.059456
8130.55,5.4706
8157.548,4.882612
8184.547,4.371891
8211.546,4.106019
8238.545,4.09001
8265.544,4.16256
8292.543,4.401014
8319.542,4.732142
8346.541,5.113991
8373.54,5.54181
8400.539,5.838148
8427.538,5.983424
8454.537,6.512003
8481.536,6.992681
8508.535,7.365799
8535.534,7.570395
8562.533,7.268064
8589.532,7.825199
8616.531,8.626873
8643.53,9.283172
8670.529,9.678994
8697.528,10.04653
8724.527,10.49652
8751.525,10.92446
8778.524,11.2036
8805.523,11.43115
8832.522,11.55344
8859.521,11.61427
8886.521,11.64545
8913.52,11.63901
8940.519,11.63576
8967.518,11.64362
8994.517,11.66528
9021.516,11.69175
9048.515,11.71878
9075.514,11.71194
9102.513,11.75098
9129.512,11.72114
9156.511,11.69381
9183.51,11.66824
9210.509,11.62621
9237.508,11.56878
9264.507,11.56907
9291.506,11.51847
9318.504,11.5185
9345.503,11.50673
9372.502,11.45644
9399.501,11.38504
9426.5,11.31786
9453.499,11.23001
9480.498,11.15286
9507.497,11.11314
9534.496,11.05237
9561.495,10.97584
9588.494,10.91165
9615.493,10.92887
9642.492,11.04861
9669.491,11.16185
9696.49,11.27564
9723.489,11.39984
9750.488,11.51753
9777.487,11.53738
9804.486,11.56301
9831.485,11.58707
9858.484,11.69493
9885.482,11.8371
9912.481,11.91701
9939.48,12.06911
9966.479,12.14061
9993.479,12.19649
10020.48,12.24099
10047.48,12.31173
10074.48,12.38672
10101.47,12.41358
10128.47,12.45979
10155.47,12.45781
10182.47,12.46672
10209.47,12.47911
10236.47,12.46545
10263.47,12.4725
10290.47,12.42418
10317.47,12.37463
10344.47,12.38006
10371.46,12.32636
10398.46,12.33499
10425.46,12.36687
10452.46,12.24017
10479.46,12.1622
10506.46,12.10957
10533.46,11.94413
10560.46,11.7413
10587.46,11.45376
10614.46,11.08556
10641.45,10.7352
10668.45,10.27078
10695.45,9.959675
10722.45,9.879502
10749.45,9.858166
10776.45,10.10963
10803.45,10.33587
10830.45,10.62036
10857.45,10.89228
10884.45,11.23534
10911.44,11.4528
10938.44,11.69201
10965.44,11.93855
10992.44,12.09947
11019.44,12.21925
11046.44,12.35154
11073.44,12.45007
11100.44,12.50374
11127.44,12.45552
11154.43,12.65858
11181.43,12.68375
11208.43,12.81337
11235.43,12.8968
11262.43,12.98612
11289.43,13.03711
11316.43,12.99902
11343.43,13.11195
11370.43,13.1216
11397.43,13.19939
11424.42,13.26366
11451.42,13.30222
11478.42,13.45549
11505.42,13.29407
11532.42,13.34967
11559.42,13.37604
11586.42,13.47609
11613.42,13.46604
11640.42,13.63521
11667.42,13.3395
11694.41,13.54055
11721.41,13.52444
11748.41,13.58234
11775.41,13.50671
11802.41,13.4884
11829.41,13.49786
11856.41,13.52406
11883.41,13.43081
11910.41,13.48359
11937.41,13.4874
11964.4,13.65537
11991.4,13.46211
11999.12,13.43496