File: Data/NIR/N1476LDPE_2.csv
Wavenumber,Intensity
3999.706,2.902091
4026.705,2.903874
4053.704,2.915837
4080.703,2.920362
4107.702,2.919604
4134.701,2.925496
4161.7,2.935637
4188.699,2.947884
4215.698,2.98313
4242.697,3.000408
4269.696,3.022894
4296.694,3.037298
4323.693,3.011802
4350.692,3.040454
4377.691,3.056978
4404.69,3.127917
4431.689,3.321917
4458.688,3.5829
4485.688,3.850887
4512.687,4.138814
4539.686,4.432116
4566.685,4.760663
4593.683,4.966496
4620.682,5.091346
4647.681,5.155593
4674.68,5.090909
4701.679,5.249549
4728.678,5.135808
4755.677,5.032273
4782.676,4.854007
4809.675,4.743094
4836.674,4.553798
4863.673,4.329915
4890.672,4.369388
4917.671,4.406685
4944.67,4.365808
4971.669,4.173891
4998.668,4.354947
5025.667,4.464211
5052.666,4.483901
5079.665,4.438997
5106.664,4.420689
5133.663,4.478413
5160.662,4.410547
5187.661,4.401225
5214.66,4.405186
5241.659,4.45265
5268.658,4.465805
5295.657,4.451146
5322.656,4.503998
5349.655,4.383515
5376.654,4.19705
5403.652,4.043798
5430.651,3.833572
5457.65,3.792559
5484.649,3.691377
5511.648,3.696788
5538.647,3.696369
5565.646,3.716341
5592.646,3.835057
5619.645,3.678054
5646.644,3.470683
5673.643,3.322778
5700.642,3.528634
5727.641,3.496668
5754.639,3.289005
5781.638,3.218991
5808.637,3.292101
5835.636,3.446339
5862.635,3.979357
5889.634,5.175957
5916.633,6.051188
5943.632,7.252316
5970.631,8.269972
5997.63,9.163003
6024.629,9.84864
6051.628,10.33947
6078.627,10.67026
6105.626,10.89612
6132.625,11.10314
6159.624,11.32201
6186.623,11.52339
6213.622,11.65444
6240.621,11.74409
6267.62,11.7852
6294.619,11.822
6321.618,11.82872
6348.617,11.74263
6375.616,11.53609
6402.615,11.39635
6429.614,11.13627
6456.613,10.72423
6483.612,9.64076
6510.61,10.09565
6537.609,10.33275
6564.608,10.4773
6591.607,10.61326
6618.606,10.61886
6645.605,10.52699
6672.604,10.37043
6699.604,10.12896
6726.603,9.826614
6753.602,9.542422
6780.601,9.182693
6807.6,8.622458
6834.599,8.042396
6861.598,7.758008
6888.597,7.386932
6915.596,7.043406
6942.594,6.537319
6969.593,6.402691
6996.592,6.299774
7023.591,6.042409
7050.59,5.778577
7077.589,5.996983
7104.588,6.648983
7131.587,7.122722
7158.586,6.229068
7185.585,5.832606
7212.584,7.357442
7239.583,8.658747
7266.582,9.78665
7293.581,10.85429
7320.58,11.78522
7347.579,12.33938
7374.578,12.78358
7401.577,13.05815
7428.576,13.19841
7455.575,13.27867
7482.574,13.31482
7509.573,13.30422
7536.572,13.26948
7563.571,13.20794
7590.57,13.12812
7617.569,13.02058
7644.568,12.86236
7671.566,12.73883
7698.565,12.65802
7725.564,12.55288
7752.563,12.46107
7779.563,12.34797
7806.562,12.24531
7833.561,12.10838
7860.56,11.94061
7887.559,11.70503
7914.558,11.4279
7941.557,11.10172
7968.556,10.69712
7995.555,10.24888
8022.554,9.715648
8049.553,9.10625
8076.552,8.432858
8103.551,7.674757
8130.55,6.818146
8157.548,5.952404
8184.547,5.151838
8211.546,4.716105
8238.545,4.693185
8265.544,4.834289
8292.543,5.252771
8319.542,5.80691
8346.541,6.422366
8373.54,7.131654
8400.539,7.605103
8427.538,7.739596
8454.537,8.471278
8481.536,9.147525
8508.535,9.680804
8535.534,9.921079
8562.533,9.42587
8589.532,10.22389
8616.531,11.39278
8643.53,12.23467
8670.529,12.76823
8697.528,13.24643
8724.527,13.77819
8751.525,14.263
8778.524,14.61102
8805.523,14.83665
8832.522,14.95902
8859.521,15.01758
8886.521,15.04847
8913.52,15.05735
8940.519,15.03821
8967.518,15.04126
8994.517,15.06323
9021.516,15.11451
9048.515,15.14964
9075.514,15.14765
9102.513,15.1903
9129.512,15.15224
9156.511,15.16529
9183.51,15.10126
9210.509,15.04956
9237.508,15.00294
9264.507,14.99316
9291.506,14.93368
9318.504,14.94122
9345.503,14.93538
9372.502,14.87689
9399.501,14.79711
9426.5,14.71208
9453.499,14.58632
9480.498,14.51531
9507.497,14.45354
9534.496,14.36955
9561.495,14.27854
9588.494,14.2182
9615.493,14.24262
9642.492,14.38687
9669.491,14.54539
9696.49,14.69567
9723.489,14.83601
9750.488,15.00195
9777.487,15.03628
9804.486,15.07098
9831.485,15.04761
9858.484,15.19162
9885.482,15.36423
9912.481,15.47569
9939.48,15.5877
9966.479,15.70691
9993.479,15.78698
10020.48,15.82012
10047.48,15.88854
10074.48,15.98263
10101.47,16.01677
10128.47,16.03724
10155.47,16.03215
10182.47,16.0626
10209.47,16.06431
10236.47,16.05802
10263.47,16.07529
10290.47,15.98242
10317.47,15.89862
10344.47,15.89515
10371.46,15.8928
10398.46,15.87498
10425.46,15.90846
10452.46,15.77552
10479.46,15.71575
10506.46,15.57932
10533.46,15.42167
10560.46,15.12856
10587.46,14.80639
10614.46,14.33275
10641.45,13.8487
10668.45,13.33657
10695.45,12.90469
10722.45,12.7393
10749.45,12.8021
10776.45,13.05874
10803.45,13.39958
10830.45,13.79351
10857.45,14.15808
10884.45,14.48776
10911.44,14.85304
10938.44,15.18013
10965.44,15.44816
10992.44,15.68197
11019.44,15.82478
11046.44,15.91771
11073.44,16.07449
11100.44,16.13973
11127.44,16.15537
11154.43,16.19228
11181.43,16.32241
11208.43,16.45814
11235.43,16.56085
11262.43,16.66681
11289.43,16.75684
11316.43,16.67793
11343.43,16.80401
11370.43,16.82148
11397.43,16.89001
11424.42,16.91261
11451.42,17.06808
11478.42,17.09319
11505.42,17.03432
11532.42,16.98152
11559.42,17.14865
11586.42,17.2203
11613.42,17.16193
11640.42,17.23411
11667.42,17.03629
11694.41,17.21816
11721.41,17.13813
11748.41,17.28551
11775.41,17.25261
11802.41,17.08355
11829.41,17.08694
11856.41,17.09999
11883.41,17.0122
11910.41,17.02699
11937.41,17.04556
11964.4,17.05703
11991.4,16.98115
11999.12,17.13083