File: Data/NIR/N1473LDPE_3.csv
Wavenumber,Intensity
3999.706,3.273554
4026.705,3.294872
4053.704,3.307385
4080.703,3.321619
4107.702,3.329476
4134.701,3.328657
4161.7,3.342934
4188.699,3.360375
4215.698,3.402199
4242.697,3.426244
4269.696,3.443804
4296.694,3.457973
4323.693,3.442706
4350.692,3.466502
4377.691,3.471521
4404.69,3.500567
4431.689,3.629765
4458.688,3.849544
4485.688,4.071547
4512.687,4.310694
4539.686,4.554587
4566.685,4.824186
4593.683,5.00781
4620.682,5.114057
4647.681,5.180959
4674.68,5.147498
4701.679,5.270014
4728.678,5.200968
4755.677,5.127961
4782.676,4.998749
4809.675,4.918738
4836.674,4.767997
4863.673,4.581155
4890.672,4.607602
4917.671,4.641869
4944.67,4.608886
4971.669,4.437772
4998.668,4.581473
5025.667,4.662853
5052.666,4.680768
5079.665,4.65003
5106.664,4.636569
5133.663,4.67686
5160.662,4.626069
5187.661,4.615008
5214.66,4.618905
5241.659,4.649117
5268.658,4.658895
5295.657,4.648809
5322.656,4.681352
5349.655,4.592613
5376.654,4.44
5403.652,4.304391
5430.651,4.136731
5457.65,4.087167
5484.649,4.006766
5511.648,4.008049
5538.647,4.008972
5565.646,4.02117
5592.646,4.109166
5619.645,3.980729
5646.644,3.818725
5673.643,3.723227
5700.642,3.860953
5727.641,3.850564
5754.639,3.701445
5781.638,3.666483
5808.637,3.700596
5835.636,3.792833
5862.635,4.139521
5889.634,5.012731
5916.633,5.694168
5943.632,6.807204
5970.631,7.601819
5997.63,8.23727
6024.629,8.727705
6051.628,9.070642
6078.627,9.299164
6105.626,9.450939
6132.625,9.606268
6159.624,9.795477
6186.623,9.96654
6213.622,10.07656
6240.621,10.14768
6267.62,10.18003
6294.619,10.20684
6321.618,10.21368
6348.617,10.15857
6375.616,10.02307
6402.615,9.927656
6429.614,9.751592
6456.613,9.485104
6483.612,8.746781
6510.61,9.013356
6537.609,9.154849
6564.608,9.238951
6591.607,9.309102
6618.606,9.304321
6645.605,9.225537
6672.604,9.110581
6699.604,8.938441
6726.603,8.725092
6753.602,8.51867
6780.601,8.251595
6807.6,7.854951
6834.599,7.447402
6861.598,7.232659
6888.597,6.938423
6915.596,6.672876
6942.594,6.287788
6969.593,6.168121
6996.592,6.087423
7023.591,5.909486
7050.59,5.812969
7077.589,5.879298
7104.588,6.316466
7131.587,6.641793
7158.586,5.992897
7185.585,5.654417
7212.584,6.757785
7239.583,7.698741
7266.582,8.495008
7293.581,9.252293
7320.58,9.923179
7347.579,10.28173
7374.578,10.65698
7401.577,10.91006
7428.576,11.02931
7455.575,11.08168
7482.574,11.11638
7509.573,11.09996
7536.572,11.08162
7563.571,11.04181
7590.57,10.97544
7617.569,10.89967
7644.568,10.79019
7671.566,10.70107
7698.565,10.64301
7725.564,10.56439
7752.563,10.48779
7779.563,10.41004
7806.562,10.32041
7833.561,10.22963
7860.56,10.09275
7887.559,9.932523
7914.558,9.728394
7941.557,9.497606
7968.556,9.214229
7995.555,8.883379
8022.554,8.497121
8049.553,8.07672
8076.552,7.578506
8103.551,7.02199
8130.55,6.381585
8157.548,5.697608
8184.547,5.065098
8211.546,4.721836
8238.545,4.681546
8265.544,4.787808
8292.543,5.09734
8319.542,5.508755
8346.541,5.962648
8373.54,6.44252
8400.539,6.77226
8427.538,6.931292
8454.537,7.474922
8481.536,7.969283
8508.535,8.350944
8535.534,8.545993
8562.533,8.253177
8589.532,8.769233
8616.531,9.549643
8643.53,10.14584
8670.529,10.48744
8697.528,10.80619
8724.527,11.20807
8751.525,11.57136
8778.524,11.8332
8805.523,11.99874
8832.522,12.106
8859.521,12.15523
8886.521,12.17118
8913.52,12.19431
8940.519,12.17165
8967.518,12.1809
8994.517,12.20259
9021.516,12.23244
9048.515,12.25561
9075.514,12.23984
9102.513,12.26813
9129.512,12.24083
9156.511,12.24897
9183.51,12.19748
9210.509,12.16668
9237.508,12.12428
9264.507,12.10872
9291.506,12.10168
9318.504,12.09492
9345.503,12.08617
9372.502,12.02292
9399.501,11.99293
9426.5,11.90864
9453.499,11.84626
9480.498,11.79649
9507.497,11.76273
9534.496,11.72013
9561.495,11.6423
9588.494,11.60749
9615.493,11.61224
9642.492,11.6951
9669.491,11.78903
9696.49,11.91856
9723.489,12.00717
9750.488,12.13277
9777.487,12.14883
9804.486,12.16623
9831.485,12.16998
9858.484,12.27246
9885.482,12.37256
9912.481,12.47991
9939.48,12.59044
9966.479,12.67056
9993.479,12.71995
10020.48,12.74435
10047.48,12.79451
10074.48,12.83889
10101.47,12.89923
10128.47,12.92542
10155.47,12.88937
10182.47,12.93656
10209.47,12.95446
10236.47,12.92338
10263.47,12.92521
10290.47,12.91848
10317.47,12.9116
10344.47,12.88143
10371.46,12.85331
10398.46,12.79574
10425.46,12.84656
10452.46,12.79211
10479.46,12.7182
10506.46,12.65461
10533.46,12.51583
10560.46,12.33325
10587.46,12.1188
10614.46,11.80521
10641.45,11.44496
10668.45,11.07281
10695.45,10.77343
10722.45,10.69303
10749.45,10.73493
10776.45,10.8732
10803.45,11.13761
10830.45,11.33859
10857.45,11.60928
10884.45,11.93432
10911.44,12.12047
10938.44,12.33781
10965.44,12.50337
10992.44,12.69966
11019.44,12.78737
11046.44,12.9129
11073.44,12.99845
11100.44,13.05992
11127.44,13.06366
11154.43,13.12451
11181.43,13.21013
11208.43,13.31386
11235.43,13.39968
11262.43,13.49048
11289.43,13.48849
11316.43,13.47569
11343.43,13.58597
11370.43,13.5267
11397.43,13.73283
11424.42,13.69996
11451.42,13.82119
11478.42,13.88841
11505.42,13.70313
11532.42,13.74974
11559.42,13.88484
11586.42,13.94644
11613.42,13.86845
11640.42,13.9424
11667.42,13.82775
11694.41,13.93299
11721.41,13.95
11748.41,13.94064
11775.41,13.91235
11802.41,13.88581
11829.41,13.87141
11856.41,13.76591
11883.41,13.79589
11910.41,13.87187
11937.41,13.75822
11964.4,13.84099
11991.4,13.72058
11999.12,13.99642