File: Data/NIR/N1476LDPE_3.csv
Wavenumber,Intensity
3999.706,3.693243
4026.705,3.70251
4053.704,3.717303
4080.703,3.720289
4107.702,3.724748
4134.701,3.731467
4161.7,3.738827
4188.699,3.759787
4215.698,3.804044
4242.697,3.825725
4269.696,3.849285
4296.694,3.87296
4323.693,3.837407
4350.692,3.872347
4377.691,3.895786
4404.69,3.959749
4431.689,4.170784
4458.688,4.476765
4485.688,4.792929
4512.687,5.128233
4539.686,5.471965
4566.685,5.840181
4593.683,6.07514
4620.682,6.217353
4647.681,6.287719
4674.68,6.219196
4701.679,6.392327
4728.678,6.270774
4755.677,6.158714
4782.676,5.964534
4809.675,5.845866
4836.674,5.627029
4863.673,5.372505
4890.672,5.409604
4917.671,5.455737
4944.67,5.406423
4971.669,5.186989
4998.668,5.396105
5025.667,5.521864
5052.666,5.546222
5079.665,5.496234
5106.664,5.474054
5133.663,5.543408
5160.662,5.466781
5187.661,5.45044
5214.66,5.45761
5241.659,5.510639
5268.658,5.530091
5295.657,5.509248
5322.656,5.573015
5349.655,5.433879
5376.654,5.224782
5403.652,5.034693
5430.651,4.794435
5457.65,4.732713
5484.649,4.613652
5511.648,4.619393
5538.647,4.621944
5565.646,4.633317
5592.646,4.779893
5619.645,4.593797
5646.644,4.348219
5673.643,4.193431
5700.642,4.421981
5727.641,4.383217
5754.639,4.157435
5781.638,4.087752
5808.637,4.159171
5835.636,4.321207
5862.635,4.951465
5889.634,6.335793
5916.633,7.300676
5943.632,8.584818
5970.631,9.646225
5997.63,10.56114
6024.629,11.25754
6051.628,11.75806
6078.627,12.0935
6105.626,12.32619
6132.625,12.53675
6159.624,12.75309
6186.623,12.95459
6213.622,13.09295
6240.621,13.18386
6267.62,13.22682
6294.619,13.26225
6321.618,13.27457
6348.617,13.19284
6375.616,12.98891
6402.615,12.84817
6429.614,12.58971
6456.613,12.17909
6483.612,11.08256
6510.61,11.54451
6537.609,11.78547
6564.608,11.93326
6591.607,12.07656
6618.606,12.07782
6645.605,11.98709
6672.604,11.83113
6699.604,11.58777
6726.603,11.27814
6753.602,10.98671
6780.601,10.61796
6807.6,10.03704
6834.599,9.444086
6861.598,9.134458
6888.597,8.737062
6915.596,8.382626
6942.594,7.826839
6969.593,7.679626
6996.592,7.571431
7023.591,7.284412
7050.59,6.992368
7077.589,7.230341
7104.588,7.943813
7131.587,8.450207
7158.586,7.489911
7185.585,7.047833
7212.584,8.707607
7239.583,10.09379
7266.582,11.26414
7293.581,12.37416
7320.58,13.31767
7347.579,13.88797
7374.578,14.33304
7401.577,14.60552
7428.576,14.74491
7455.575,14.83049
7482.574,14.87659
7509.573,14.86037
7536.572,14.83233
7563.571,14.77285
7590.57,14.69887
7617.569,14.58166
7644.568,14.43384
7671.566,14.29673
7698.565,14.23094
7725.564,14.12619
7752.563,14.03555
7779.563,13.9147
7806.562,13.82016
7833.561,13.68085
7860.56,13.51215
7887.559,13.27425
7914.558,13.00044
7941.557,12.66664
7968.556,12.25572
7995.555,11.78386
8022.554,11.22599
8049.553,10.60027
8076.552,9.883027
8103.551,9.071203
8130.55,8.142321
8157.548,7.168018
8184.547,6.275723
8211.546,5.763312
8238.545,5.731941
8265.544,5.903749
8292.543,6.38632
8319.542,7.016093
8346.541,7.697414
8373.54,8.467601
8400.539,9.006066
8427.538,9.143422
8454.537,9.940705
8481.536,10.65852
8508.535,11.22668
8535.534,11.47806
8562.533,10.95928
8589.532,11.78475
8616.531,13.01131
8643.53,13.89948
8670.529,14.44846
8697.528,14.92286
8724.527,15.47654
8751.525,15.97536
8778.524,16.32077
8805.523,16.55258
8832.522,16.69793
8859.521,16.75323
8886.521,16.78979
8913.52,16.78979
8940.519,16.77428
8967.518,16.7962
8994.517,16.82067
9021.516,16.84637
9048.515,16.91694
9075.514,16.90619
9102.513,16.95902
9129.512,16.93252
9156.511,16.91142
9183.51,16.8676
9210.509,16.8358
9237.508,16.78897
9264.507,16.77958
9291.506,16.7273
9318.504,16.71373
9345.503,16.73377
9372.502,16.65656
9399.501,16.60204
9426.5,16.48715
9453.499,16.39753
9480.498,16.29922
9507.497,16.26796
9534.496,16.18192
9561.495,16.0833
9588.494,16.03456
9615.493,16.05213
9642.492,16.18371
9669.491,16.37021
9696.49,16.5248
9723.489,16.6848
9750.488,16.80914
9777.487,16.8766
9804.486,16.92705
9831.485,16.94726
9858.484,17.05879
9885.482,17.25456
9912.481,17.33961
9939.48,17.48242
9966.479,17.60194
9993.479,17.67348
10020.48,17.69095
10047.48,17.81258
10074.48,17.89808
10101.47,17.9253
10128.47,17.97478
10155.47,17.96874
10182.47,17.9886
10209.47,18.00492
10236.47,17.97484
10263.47,17.97878
10290.47,17.92217
10317.47,17.85893
10344.47,17.80313
10371.46,17.89342
10398.46,17.85907
10425.46,17.86033
10452.46,17.74575
10479.46,17.63126
10506.46,17.56667
10533.46,17.39235
10560.46,17.07384
10587.46,16.76426
10614.46,16.30828
10641.45,15.80191
10668.45,15.22805
10695.45,14.78447
10722.45,14.63943
10749.45,14.6701
10776.45,14.99599
10803.45,15.34263
10830.45,15.72517
10857.45,16.11695
10884.45,16.55375
10911.44,16.85481
10938.44,17.17406
10965.44,17.53058
10992.44,17.72509
11019.44,17.87516
11046.44,18.02556
11073.44,18.15109
11100.44,18.22197
11127.44,18.26617
11154.43,18.36586
11181.43,18.4402
11208.43,18.67144
11235.43,18.74311
11262.43,18.82585
11289.43,18.78943
11316.43,18.97572
11343.43,19.01293
11370.43,18.9008
11397.43,19.11534
11424.42,19.06898
11451.42,19.17083
11478.42,19.29156
11505.42,19.16647
11532.42,19.26726
11559.42,19.41805
11586.42,19.35713
11613.42,19.47695
11640.42,19.35225
11667.42,19.27005
11694.41,19.4923
11721.41,19.32478
11748.41,19.46239
11775.41,19.3518
11802.41,19.34892
11829.41,19.2017
11856.41,19.24444
11883.41,19.21901
11910.41,19.26954
11937.41,19.35457
11964.4,19.29565
11991.4,19.27396
11999.12,19.35522