File: Data/NIR/N1473LDPE_5.csv
Wavenumber,Intensity
3999.706,2.044662
4026.705,2.057136
4053.704,2.068636
4080.703,2.074915
4107.702,2.080268
4134.701,2.088057
4161.7,2.087918
4188.699,2.103755
4215.698,2.133374
4242.697,2.149338
4269.696,2.157648
4296.694,2.165821
4323.693,2.150613
4350.692,2.169337
4377.691,2.181378
4404.69,2.191098
4431.689,2.242872
4458.688,2.352764
4485.688,2.488928
4512.687,2.654731
4539.686,2.839071
4566.685,3.044776
4593.683,3.191659
4620.682,3.288998
4647.681,3.334673
4674.68,3.308557
4701.679,3.408904
4728.678,3.343835
4755.677,3.276603
4782.676,3.166498
4809.675,3.094752
4836.674,2.97438
4863.673,2.834985
4890.672,2.850258
4917.671,2.872441
4944.67,2.848857
4971.669,2.720699
4998.668,2.830312
5025.667,2.891738
5052.666,2.903403
5079.665,2.872649
5106.664,2.861433
5133.663,2.889944
5160.662,2.856475
5187.661,2.844972
5214.66,2.846258
5241.659,2.869752
5268.658,2.882004
5295.657,2.870574
5322.656,2.895846
5349.655,2.831085
5376.654,2.727373
5403.652,2.631633
5430.651,2.529557
5457.65,2.498127
5484.649,2.456174
5511.648,2.457859
5538.647,2.455949
5565.646,2.463137
5592.646,2.508707
5619.645,2.445268
5646.644,2.371221
5673.643,2.331051
5700.642,2.388861
5727.641,2.384689
5754.639,2.326974
5781.638,2.303392
5808.637,2.324649
5835.636,2.365526
5862.635,2.529639
5889.634,3.120617
5916.633,3.685373
5943.632,4.725878
5970.631,5.537072
5997.63,6.214694
6024.629,6.746509
6051.628,7.136539
6078.627,7.400622
6105.626,7.563541
6132.625,7.747731
6159.624,7.959933
6186.623,8.155443
6213.622,8.281424
6240.621,8.357571
6267.62,8.397266
6294.619,8.429379
6321.618,8.420335
6348.617,8.348548
6375.616,8.181177
6402.615,8.072239
6429.614,7.860872
6456.613,7.537218
6483.612,6.697842
6510.61,6.994488
6537.609,7.156689
6564.608,7.240859
6591.607,7.326897
6618.606,7.310106
6645.605,7.2198
6672.604,7.080385
6699.604,6.888881
6726.603,6.639627
6753.602,6.408732
6780.601,6.111195
6807.6,5.69171
6834.599,5.272111
6861.598,5.04668
6888.597,4.757363
6915.596,4.504889
6942.594,4.138782
6969.593,4.031356
6996.592,3.959862
7023.591,3.800076
7050.59,3.727281
7077.589,3.778798
7104.588,4.15743
7131.587,4.461783
7158.586,3.854354
7185.585,3.58416
7212.584,4.552384
7239.583,5.462235
7266.582,6.289207
7293.581,7.126523
7320.58,7.869156
7347.579,8.291086
7374.578,8.707655
7401.577,8.998835
7428.576,9.124875
7455.575,9.19533
7482.574,9.213678
7509.573,9.203163
7536.572,9.159164
7563.571,9.105422
7590.57,9.038985
7617.569,8.926562
7644.568,8.796619
7671.566,8.686289
7698.565,8.606241
7725.564,8.508258
7752.563,8.421133
7779.563,8.317577
7806.562,8.220466
7833.561,8.108157
7860.56,7.951851
7887.559,7.750386
7914.558,7.529561
7941.557,7.268109
7968.556,6.943535
7995.555,6.588429
8022.554,6.191014
8049.553,5.738538
8076.552,5.232422
8103.551,4.699923
8130.55,4.120959
8157.548,3.529708
8184.547,3.054222
8211.546,2.815032
8238.545,2.801574
8265.544,2.867022
8292.543,3.07171
8319.542,3.383374
8346.541,3.739354
8373.54,4.136662
8400.539,4.434153
8427.538,4.585623
8454.537,5.087708
8481.536,5.571494
8508.535,5.941511
8535.534,6.128878
8562.533,5.833097
8589.532,6.356218
8616.531,7.182589
8643.53,7.80784
8670.529,8.184097
8697.528,8.53053
8724.527,8.999356
8751.525,9.403192
8778.524,9.698153
8805.523,9.893514
8832.522,10.00253
8859.521,10.05878
8886.521,10.09083
8913.52,10.07563
8940.519,10.05978
8967.518,10.0734
8994.517,10.06075
9021.516,10.10695
9048.515,10.11456
9075.514,10.13672
9102.513,10.13104
9129.512,10.09129
9156.511,10.07604
9183.51,10.04944
9210.509,10.01793
9237.508,9.957294
9264.507,9.908906
9291.506,9.866204
9318.504,9.872148
9345.503,9.860829
9372.502,9.790474
9399.501,9.717453
9426.5,9.62556
9453.499,9.547108
9480.498,9.428087
9507.497,9.396704
9534.496,9.346637
9561.495,9.253643
9588.494,9.21577
9615.493,9.235302
9642.492,9.288621
9669.491,9.434559
9696.49,9.509962
9723.489,9.64976
9750.488,9.733487
9777.487,9.771892
9804.486,9.764619
9831.485,9.80083
9858.484,9.896798
9885.482,10.02574
9912.481,10.13271
9939.48,10.21088
9966.479,10.29143
9993.479,10.35613
10020.48,10.40187
10047.48,10.45865
10074.48,10.50374
10101.47,10.52604
10128.47,10.5621
10155.47,10.56118
10182.47,10.56031
10209.47,10.56275
10236.47,10.54555
10263.47,10.56423
10290.47,10.51336
10317.47,10.4725
10344.47,10.44704
10371.46,10.42304
10398.46,10.39203
10425.46,10.37521
10452.46,10.26112
10479.46,10.27175
10506.46,10.10696
10533.46,9.984569
10560.46,9.714339
10587.46,9.473271
10614.46,9.103729
10641.45,8.772716
10668.45,8.350298
10695.45,8.038615
10722.45,7.960281
10749.45,7.966229
10776.45,8.113999
10803.45,8.407637
10830.45,8.642837
10857.45,8.889214
10884.45,9.12316
10911.44,9.442134
10938.44,9.596485
10965.44,9.782724
10992.44,10.01887
11019.44,10.15619
11046.44,10.25316
11073.44,10.27596
11100.44,10.39789
11127.44,10.42077
11154.43,10.51061
11181.43,10.52857
11208.43,10.59975
11235.43,10.61363
11262.43,10.86331
11289.43,10.81242
11316.43,10.68368
11343.43,10.81298
11370.43,10.97315
11397.43,10.95776
11424.42,11.00899
11451.42,11.04974
11478.42,10.95326
11505.42,11.05236
11532.42,11.12444
11559.42,11.00616
11586.42,11.10077
11613.42,11.21296
11640.42,11.07815
11667.42,11.11195
11694.41,11.21908
11721.41,11.24111
11748.41,11.27813
11775.41,11.14302
11802.41,11.23061
11829.41,11.07428
11856.41,10.99825
11883.41,11.01882
11910.41,11.03762
11937.41,11.0112
11964.4,11.05688
11991.4,10.96479
11999.12,11.10543