File: Data/NIR/N1473LDPE_4.csv
Wavenumber,Intensity
3999.706,2.458613
4026.705,2.466516
4053.704,2.476346
4080.703,2.483618
4107.702,2.485506
4134.701,2.488753
4161.7,2.496544
4188.699,2.51644
4215.698,2.54923
4242.697,2.568583
4269.696,2.583472
4296.694,2.597516
4323.693,2.57435
4350.692,2.597465
4377.691,2.62025
4404.69,2.646216
4431.689,2.813249
4458.688,3.107018
4485.688,3.436394
4512.687,3.793168
4539.686,4.145566
4566.685,4.533643
4593.683,4.792776
4620.682,4.947957
4647.681,5.029537
4674.68,4.973958
4701.679,5.147506
4728.678,5.027396
4755.677,4.911791
4782.676,4.712237
4809.675,4.577142
4836.674,4.339826
4863.673,4.06011
4890.672,4.096181
4917.671,4.134569
4944.67,4.094277
4971.669,3.830129
4998.668,4.04404
5025.667,4.163096
5052.666,4.181564
5079.665,4.130188
5106.664,4.102399
5133.663,4.153833
5160.662,4.083051
5187.661,4.058453
5214.66,4.059906
5241.659,4.096822
5268.658,4.116734
5295.657,4.096535
5322.656,4.146579
5349.655,4.005332
5376.654,3.788693
5403.652,3.587687
5430.651,3.356735
5457.65,3.279438
5484.649,3.177262
5511.648,3.173977
5538.647,3.168892
5565.646,3.192924
5592.646,3.304321
5619.645,3.135171
5646.644,2.931625
5673.643,2.817894
5700.642,2.975777
5727.641,2.961956
5754.639,2.790105
5781.638,2.740639
5808.637,2.782046
5835.636,2.890998
5862.635,3.33333
5889.634,4.551232
5916.633,5.536865
5943.632,7.137499
5970.631,8.255766
5997.63,9.140521
6024.629,9.795122
6051.628,10.26122
6078.627,10.56751
6105.626,10.75145
6132.625,10.95263
6159.624,11.19744
6186.623,11.41439
6213.622,11.54077
6240.621,11.62649
6267.62,11.66966
6294.619,11.69748
6321.618,11.6911
6348.617,11.60853
6375.616,11.42432
6402.615,11.29356
6429.614,11.05319
6456.613,10.69005
6483.612,9.696241
6510.61,10.05236
6537.609,10.24151
6564.608,10.34153
6591.607,10.42781
6618.606,10.41252
6645.605,10.30437
6672.604,10.1397
6699.604,9.904802
6726.603,9.607424
6753.602,9.327137
6780.601,8.956893
6807.6,8.409448
6834.599,7.853899
6861.598,7.536839
6888.597,7.132257
6915.596,6.761931
6942.594,6.215011
6969.593,6.0471
6996.592,5.937716
7023.591,5.688685
7050.59,5.559397
7077.589,5.645702
7104.588,6.226425
7131.587,6.690734
7158.586,5.754493
7185.585,5.315976
7212.584,6.818113
7239.583,8.073594
7266.582,9.147814
7293.581,10.13683
7320.58,10.99041
7347.579,11.44513
7374.578,11.88614
7401.577,12.20446
7428.576,12.33037
7455.575,12.39951
7482.574,12.41933
7509.573,12.39957
7536.572,12.35942
7563.571,12.29795
7590.57,12.2164
7617.569,12.09981
7644.568,11.96901
7671.566,11.84548
7698.565,11.7562
7725.564,11.65371
7752.563,11.55791
7779.563,11.43837
7806.562,11.33781
7833.561,11.20315
7860.56,11.03955
7887.559,10.81918
7914.558,10.56985
7941.557,10.26665
7968.556,9.889746
7995.555,9.459968
8022.554,8.980407
8049.553,8.392012
8076.552,7.746608
8103.551,6.988205
8130.55,6.129272
8157.548,5.211674
8184.547,4.372495
8211.546,3.901757
8238.545,3.859839
8265.544,3.995928
8292.543,4.395871
8319.542,4.953629
8346.541,5.541669
8373.54,6.167731
8400.539,6.616696
8427.538,6.821362
8454.537,7.52189
8481.536,8.166411
8508.535,8.635077
8535.534,8.875947
8562.533,8.495616
8589.532,9.150846
8616.531,10.12213
8643.53,10.84795
8670.529,11.25819
8697.528,11.61748
8724.527,12.10399
8751.525,12.52237
8778.524,12.82177
8805.523,13.01388
8832.522,13.12206
8859.521,13.1737
8886.521,13.21102
8913.52,13.20231
8940.519,13.18437
8967.518,13.18412
8994.517,13.17905
9021.516,13.22268
9048.515,13.22244
9075.514,13.24032
9102.513,13.23274
9129.512,13.19963
9156.511,13.16628
9183.51,13.14351
9210.509,13.10187
9237.508,13.03109
9264.507,12.99831
9291.506,12.9463
9318.504,12.95074
9345.503,12.93725
9372.502,12.87226
9399.501,12.80997
9426.5,12.72356
9453.499,12.63856
9480.498,12.52155
9507.497,12.48284
9534.496,12.41586
9561.495,12.3407
9588.494,12.2753
9615.493,12.29744
9642.492,12.35484
9669.491,12.50721
9696.49,12.58184
9723.489,12.7303
9750.488,12.79279
9777.487,12.82593
9804.486,12.86017
9831.485,12.87321
9858.484,12.95235
9885.482,13.07104
9912.481,13.18217
9939.48,13.22655
9966.479,13.35581
9993.479,13.39805
10020.48,13.43097
10047.48,13.48933
10074.48,13.54517
10101.47,13.5505
10128.47,13.58364
10155.47,13.58417
10182.47,13.59292
10209.47,13.57579
10236.47,13.56402
10263.47,13.54528
10290.47,13.5277
10317.47,13.47871
10344.47,13.45848
10371.46,13.4428
10398.46,13.3818
10425.46,13.38997
10452.46,13.28478
10479.46,13.22321
10506.46,13.13325
10533.46,12.99892
10560.46,12.73352
10587.46,12.46455
10614.46,12.10799
10641.45,11.7217
10668.45,11.31231
10695.45,10.93378
10722.45,10.88083
10749.45,10.85764
10776.45,11.0369
10803.45,11.38383
10830.45,11.62189
10857.45,11.85044
10884.45,12.10671
10911.44,12.41052
10938.44,12.59874
10965.44,12.76072
10992.44,13.0477
11019.44,13.14828
11046.44,13.2711
11073.44,13.3199
11100.44,13.36735
11127.44,13.39931
11154.43,13.46449
11181.43,13.50712
11208.43,13.60882
11235.43,13.62587
11262.43,13.76878
11289.43,13.79719
11316.43,13.70534
11343.43,13.82269
11370.43,13.92779
11397.43,13.8506
11424.42,13.95919
11451.42,13.96118
11478.42,13.99045
11505.42,13.94123
11532.42,14.03861
11559.42,14.05117
11586.42,14.02623
11613.42,14.08909
11640.42,14.00914
11667.42,14.08229
11694.41,14.0991
11721.41,14.17507
11748.41,14.04763
11775.41,14.11565
11802.41,13.99534
11829.41,14.00571
11856.41,13.89619
11883.41,13.91995
11910.41,13.89421
11937.41,14.02995
11964.4,13.87069
11991.4,13.83143
11999.12,13.99587