File: Data/NIR/N1473LDPE_1.csv
Wavenumber,Intensity
3999.706,2.930411
4026.705,2.950227
4053.704,2.956068
4080.703,2.972588
4107.702,2.9745
4134.701,2.981
4161.7,2.993064
4188.699,3.006167
4215.698,3.045048
4242.697,3.065306
4269.696,3.085961
4296.694,3.103636
4323.693,3.07577
4350.692,3.103262
4377.691,3.115782
4404.69,3.140153
4431.689,3.222939
4458.688,3.356844
4485.688,3.501511
4512.687,3.662115
4539.686,3.841705
4566.685,4.04407
4593.683,4.185546
4620.682,4.273933
4647.681,4.325277
4674.68,4.301888
4701.679,4.404995
4728.678,4.350079
4755.677,4.296039
4782.676,4.19659
4809.675,4.137176
4836.674,4.025168
4863.673,3.892028
4890.672,3.913171
4917.671,3.937056
4944.67,3.914654
4971.669,3.795617
4998.668,3.901078
5025.667,3.959055
5052.666,3.972364
5079.665,3.956121
5106.664,3.948674
5133.663,3.976979
5160.662,3.942525
5187.661,3.938193
5214.66,3.939955
5241.659,3.961349
5268.658,3.972158
5295.657,3.965327
5322.656,3.994128
5349.655,3.928105
5376.654,3.824418
5403.652,3.728257
5430.651,3.619499
5457.65,3.586225
5484.649,3.536269
5511.648,3.538468
5538.647,3.538087
5565.646,3.550396
5592.646,3.60687
5619.645,3.524391
5646.644,3.420561
5673.643,3.358422
5700.642,3.453284
5727.641,3.444884
5754.639,3.345819
5781.638,3.317006
5808.637,3.347098
5835.636,3.415417
5862.635,3.64379
5889.634,4.265406
5916.633,4.81701
5943.632,5.799105
5970.631,6.56524
5997.63,7.211748
6024.629,7.716304
6051.628,8.090147
6078.627,8.347122
6105.626,8.509044
6132.625,8.67819
6159.624,8.889432
6186.623,9.090482
6213.622,9.212582
6240.621,9.294201
6267.62,9.335638
6294.619,9.362725
6321.618,9.374702
6348.617,9.308848
6375.616,9.153223
6402.615,9.043938
6429.614,8.852068
6456.613,8.557617
6483.612,7.752412
6510.61,8.046881
6537.609,8.200141
6564.608,8.289514
6591.607,8.371048
6618.606,8.361635
6645.605,8.283588
6672.604,8.161254
6699.604,7.973197
6726.603,7.743482
6753.602,7.526747
6780.601,7.249482
6807.6,6.847839
6834.599,6.446054
6861.598,6.232687
6888.597,5.957335
6915.596,5.714481
6942.594,5.362295
6969.593,5.258583
6996.592,5.19022
7023.591,5.032774
7050.59,4.954961
7077.589,5.008245
7104.588,5.394947
7131.587,5.692391
7158.586,5.103445
7185.585,4.827057
7212.584,5.80208
7239.583,6.702109
7266.582,7.523355
7293.581,8.320451
7320.58,9.054228
7347.579,9.469347
7374.578,9.884566
7401.577,10.18629
7428.576,10.32063
7455.575,10.39719
7482.574,10.42587
7509.573,10.41161
7536.572,10.38385
7563.571,10.33361
7590.57,10.26529
7617.569,10.16876
7644.568,10.0485
7671.566,9.942203
7698.565,9.87066
7725.564,9.780967
7752.563,9.697951
7779.563,9.593172
7806.562,9.511372
7833.561,9.401584
7860.56,9.260203
7887.559,9.076885
7914.558,8.849822
7941.557,8.587546
7968.556,8.278634
7995.555,7.93596
8022.554,7.534031
8049.553,7.078221
8076.552,6.59625
8103.551,6.057292
8130.55,5.466534
8157.548,4.881892
8184.547,4.374557
8211.546,4.104273
8238.545,4.077661
8265.544,4.146195
8292.543,4.403229
8319.542,4.737782
8346.541,5.108265
8373.54,5.52965
8400.539,5.844718
8427.538,5.990606
8454.537,6.503619
8481.536,6.992953
8508.535,7.37017
8535.534,7.570309
8562.533,7.266452
8589.532,7.821486
8616.531,8.64662
8643.53,9.290511
8670.529,9.687483
8697.528,10.0498
8724.527,10.50375
8751.525,10.91947
8778.524,11.21556
8805.523,11.42948
8832.522,11.55346
8859.521,11.59591
8886.521,11.63922
8913.52,11.65753
8940.519,11.62858
8967.518,11.64018
8994.517,11.66424
9021.516,11.67923
9048.515,11.72354
9075.514,11.71204
9102.513,11.74272
9129.512,11.71458
9156.511,11.70455
9183.51,11.65802
9210.509,11.61122
9237.508,11.5544
9264.507,11.56557
9291.506,11.52713
9318.504,11.50812
9345.503,11.49859
9372.502,11.45703
9399.501,11.38359
9426.5,11.31437
9453.499,11.21401
9480.498,11.16278
9507.497,11.1099
9534.496,11.05407
9561.495,10.97614
9588.494,10.90835
9615.493,10.93598
9642.492,11.04176
9669.491,11.16051
9696.49,11.28232
9723.489,11.38419
9750.488,11.50744
9777.487,11.54753
9804.486,11.58785
9831.485,11.5792
9858.484,11.69094
9885.482,11.84461
9912.481,11.94691
9939.48,12.0462
9966.479,12.13454
9993.479,12.20259
10020.48,12.2247
10047.48,12.30368
10074.48,12.38321
10101.47,12.43159
10128.47,12.45644
10155.47,12.42661
10182.47,12.46064
10209.47,12.45433
10236.47,12.4753
10263.47,12.47682
10290.47,12.43894
10317.47,12.3894
10344.47,12.3492
10371.46,12.35574
10398.46,12.31211
10425.46,12.33289
10452.46,12.26315
10479.46,12.15279
10506.46,12.06975
10533.46,11.91312
10560.46,11.70002
10587.46,11.4508
10614.46,11.11836
10641.45,10.66281
10668.45,10.29061
10695.45,9.986307
10722.45,9.879271
10749.45,9.893722
10776.45,10.09274
10803.45,10.29111
10830.45,10.58182
10857.45,10.87823
10884.45,11.16804
10911.44,11.40119
10938.44,11.69526
10965.44,11.93588
10992.44,12.06849
11019.44,12.23666
11046.44,12.32051
11073.44,12.4211
11100.44,12.45963
11127.44,12.5432
11154.43,12.6432
11181.43,12.67609
11208.43,12.80844
11235.43,12.95726
11262.43,12.9335
11289.43,12.9522
11316.43,13.06216
11343.43,13.14263
11370.43,13.0702
11397.43,13.20942
11424.42,13.23584
11451.42,13.29441
11478.42,13.35773
11505.42,13.29826
11532.42,13.31043
11559.42,13.41506
11586.42,13.49084
11613.42,13.48222
11640.42,13.50724
11667.42,13.40329
11694.41,13.44072
11721.41,13.32964
11748.41,13.57682
11775.41,13.53931
11802.41,13.46717
11829.41,13.48245
11856.41,13.53266
11883.41,13.48691
11910.41,13.40831
11937.41,13.50948
11964.4,13.41922
11991.4,13.40827
11999.12,13.53042