File: Data/NIR/N1476LDPE_6.csv
Wavenumber,Intensity
3999.706,3.231632
4026.705,3.243819
4053.704,3.259802
4080.703,3.268202
4107.702,3.277311
4134.701,3.282877
4161.7,3.288688
4188.699,3.315741
4215.698,3.358197
4242.697,3.381721
4269.696,3.396255
4296.694,3.410678
4323.693,3.404373
4350.692,3.41624
4377.691,3.436245
4404.69,3.49015
4431.689,3.65747
4458.688,3.874599
4485.688,4.099936
4512.687,4.331285
4539.686,4.570109
4566.685,4.840686
4593.683,5.021193
4620.682,5.125461
4647.681,5.177618
4674.68,5.132468
4701.679,5.267871
4728.678,5.187593
4755.677,5.11036
4782.676,4.974137
4809.675,4.889081
4836.674,4.736684
4863.673,4.557626
4890.672,4.583349
4917.671,4.618414
4944.67,4.585928
4971.669,4.425382
4998.668,4.581641
5025.667,4.674279
5052.666,4.69053
5079.665,4.653371
5106.664,4.63851
5133.663,4.687317
5160.662,4.636167
5187.661,4.626866
5214.66,4.632441
5241.659,4.669357
5268.658,4.687879
5295.657,4.671005
5322.656,4.717547
5349.655,4.621881
5376.654,4.470123
5403.652,4.330667
5430.651,4.159761
5457.65,4.107648
5484.649,4.027174
5511.648,4.027776
5538.647,4.028349
5565.646,4.040136
5592.646,4.145839
5619.645,4.007667
5646.644,3.819916
5673.643,3.691961
5700.642,3.874187
5727.641,3.84177
5754.639,3.656502
5781.638,3.594805
5808.637,3.655637
5835.636,3.793004
5862.635,4.26897
5889.634,5.275626
5916.633,5.983448
5943.632,6.939995
5970.631,7.747952
5997.63,8.439592
6024.629,8.974333
6051.628,9.360674
6078.627,9.620552
6105.626,9.792309
6132.625,9.958058
6159.624,10.12481
6186.623,10.27381
6213.622,10.38071
6240.621,10.45129
6267.62,10.484
6294.619,10.5176
6321.618,10.51968
6348.617,10.45375
6375.616,10.30074
6402.615,10.19638
6429.614,9.997709
6456.613,9.67655
6483.612,8.844133
6510.61,9.19301
6537.609,9.382277
6564.608,9.496811
6591.607,9.600068
6618.606,9.606108
6645.605,9.533731
6672.604,9.410658
6699.604,9.231836
6726.603,8.993908
6753.602,8.772254
6780.601,8.487356
6807.6,8.046492
6834.599,7.592378
6861.598,7.361404
6888.597,7.058754
6915.596,6.786562
6942.594,6.371734
6969.593,6.26741
6996.592,6.17895
7023.591,5.964443
7050.59,5.743315
7077.589,5.918869
7104.588,6.447074
7131.587,6.818192
7158.586,6.095963
7185.585,5.786144
7212.584,7.016057
7239.583,8.070818
7266.582,8.979385
7293.581,9.815042
7320.58,10.53822
7347.579,10.9701
7374.578,11.29341
7401.577,11.50522
7428.576,11.60424
7455.575,11.67242
7482.574,11.70607
7509.573,11.68937
7536.572,11.67107
7563.571,11.62703
7590.57,11.5693
7617.569,11.47534
7644.568,11.36973
7671.566,11.27875
7698.565,11.21497
7725.564,11.14035
7752.563,11.06181
7779.563,10.98763
7806.562,10.91201
7833.561,10.80746
7860.56,10.67275
7887.559,10.48719
7914.558,10.28889
7941.557,10.03803
7968.556,9.711325
7995.555,9.363556
8022.554,8.94138
8049.553,8.454428
8076.552,7.9181
8103.551,7.312181
8130.55,6.614355
8157.548,5.882995
8184.547,5.196481
8211.546,4.823123
8238.545,4.812955
8265.544,4.936108
8292.543,5.28499
8319.542,5.764664
8346.541,6.274742
8373.54,6.849841
8400.539,7.250375
8427.538,7.362482
8454.537,7.950007
8481.536,8.508932
8508.535,8.922341
8535.534,9.114254
8562.533,8.729742
8589.532,9.346705
8616.531,10.27744
8643.53,10.93823
8670.529,11.34106
8697.528,11.68833
8724.527,12.08781
8751.525,12.46987
8778.524,12.73436
8805.523,12.90322
8832.522,12.99004
8859.521,13.03615
8886.521,13.08126
8913.52,13.05155
8940.519,13.06741
8967.518,13.07262
8994.517,13.07671
9021.516,13.11316
9048.515,13.13497
9075.514,13.1614
9102.513,13.18225
9129.512,13.14826
9156.511,13.14627
9183.51,13.11594
9210.509,13.10435
9237.508,13.0472
9264.507,13.03004
9291.506,12.98096
9318.504,13.0114
9345.503,13.00349
9372.502,12.94892
9399.501,12.89077
9426.5,12.81227
9453.499,12.75554
9480.498,12.65715
9507.497,12.64443
9534.496,12.56958
9561.495,12.49143
9588.494,12.44922
9615.493,12.50173
9642.492,12.55287
9669.491,12.70213
9696.49,12.80606
9723.489,12.94554
9750.488,13.0097
9777.487,13.07132
9804.486,13.05727
9831.485,13.11479
9858.484,13.17908
9885.482,13.30325
9912.481,13.4249
9939.48,13.47575
9966.479,13.54339
9993.479,13.59926
10020.48,13.62901
10047.48,13.69022
10074.48,13.76402
10101.47,13.78989
10128.47,13.80424
10155.47,13.82939
10182.47,13.82028
10209.47,13.78653
10236.47,13.79411
10263.47,13.83329
10290.47,13.74905
10317.47,13.67629
10344.47,13.69087
10371.46,13.73407
10398.46,13.68793
10425.46,13.69555
10452.46,13.59701
10479.46,13.56373
10506.46,13.48
10533.46,13.33432
10560.46,13.14936
10587.46,12.86147
10614.46,12.50983
10641.45,12.1581
10668.45,11.73721
10695.45,11.39343
10722.45,11.31804
10749.45,11.33289
10776.45,11.57833
10803.45,11.85159
10830.45,12.10294
10857.45,12.34951
10884.45,12.6294
10911.44,12.9204
10938.44,13.11322
10965.44,13.34748
10992.44,13.47815
11019.44,13.59043
11046.44,13.7568
11073.44,13.70846
11100.44,13.8244
11127.44,13.82846
11154.43,13.93748
11181.43,13.99602
11208.43,14.0706
11235.43,14.1067
11262.43,14.22037
11289.43,14.23159
11316.43,14.20945
11343.43,14.30372
11370.43,14.34502
11397.43,14.3314
11424.42,14.36972
11451.42,14.43449
11478.42,14.34315
11505.42,14.37812
11532.42,14.52276
11559.42,14.44633
11586.42,14.46273
11613.42,14.54724
11640.42,14.50126
11667.42,14.45078
11694.41,14.52974
11721.41,14.68391
11748.41,14.57717
11775.41,14.58445
11802.41,14.4669
11829.41,14.41609
11856.41,14.32888
11883.41,14.52053
11910.41,14.38751
11937.41,14.44138
11964.4,14.49942
11991.4,14.2679
11999.12,14.37512