File: Data/NIR/N1473LDPE_6.csv
Wavenumber,Intensity
3999.706,2.287548
4026.705,2.296041
4053.704,2.30638
4080.703,2.317107
4107.702,2.31941
4134.701,2.328027
4161.7,2.325818
4188.699,2.345887
4215.698,2.375687
4242.697,2.391337
4269.696,2.405235
4296.694,2.414132
4323.693,2.401922
4350.692,2.416505
4377.691,2.427085
4404.69,2.437248
4431.689,2.499605
4458.688,2.589243
4485.688,2.686775
4512.687,2.794178
4539.686,2.913902
4566.685,3.051346
4593.683,3.152613
4620.682,3.215866
4647.681,3.2458
4674.68,3.233785
4701.679,3.306327
4728.678,3.271841
4755.677,3.235822
4782.676,3.174142
4809.675,3.129797
4836.674,3.056428
4863.673,2.967743
4890.672,2.981485
4917.671,2.998582
4944.67,2.980962
4971.669,2.898875
4998.668,2.970359
5025.667,3.015107
5052.666,3.024667
5079.665,3.009356
5106.664,3.000848
5133.663,3.022727
5160.662,3.004302
5187.661,2.997418
5214.66,2.998388
5241.659,3.020216
5268.658,3.02321
5295.657,3.016714
5322.656,3.031379
5349.655,2.988945
5376.654,2.914036
5403.652,2.854508
5430.651,2.765168
5457.65,2.747539
5484.649,2.71428
5511.648,2.714469
5538.647,2.711884
5565.646,2.719083
5592.646,2.759445
5619.645,2.702864
5646.644,2.632302
5673.643,2.584943
5700.642,2.646246
5727.641,2.642472
5754.639,2.574175
5781.638,2.543947
5808.637,2.569843
5835.636,2.617127
5862.635,2.778287
5889.634,3.213062
5916.633,3.5885
5943.632,4.267079
5970.631,4.803568
5997.63,5.248431
6024.629,5.607306
6051.628,5.865217
6078.627,6.046083
6105.626,6.163586
6132.625,6.293337
6159.624,6.440402
6186.623,6.580998
6213.622,6.664696
6240.621,6.726938
6267.62,6.755373
6294.619,6.784365
6321.618,6.785355
6348.617,6.742527
6375.616,6.627721
6402.615,6.557176
6429.614,6.419617
6456.613,6.202755
6483.612,5.638894
6510.61,5.846731
6537.609,5.959229
6564.608,6.015357
6591.607,6.076969
6618.606,6.072547
6645.605,6.014965
6672.604,5.924979
6699.604,5.796281
6726.603,5.630507
6753.602,5.479014
6780.601,5.28041
6807.6,5.002159
6834.599,4.717863
6861.598,4.563544
6888.597,4.374029
6915.596,4.205676
6942.594,3.959569
6969.593,3.886806
6996.592,3.834691
7023.591,3.727413
7050.59,3.672587
7077.589,3.712928
7104.588,3.968973
7131.587,4.184205
7158.586,3.770602
7185.585,3.572613
7212.584,4.252614
7239.583,4.894537
7266.582,5.465664
7293.581,6.045762
7320.58,6.571244
7347.579,6.862695
7374.578,7.172479
7401.577,7.381843
7428.576,7.462888
7455.575,7.526862
7482.574,7.542487
7509.573,7.533271
7536.572,7.518991
7563.571,7.48293
7590.57,7.433289
7617.569,7.35375
7644.568,7.281014
7671.566,7.197943
7698.565,7.146136
7725.564,7.085691
7752.563,7.025898
7779.563,6.956156
7806.562,6.891113
7833.561,6.81578
7860.56,6.703588
7887.559,6.568039
7914.558,6.419174
7941.557,6.232358
7968.556,6.002302
7995.555,5.760312
8022.554,5.487997
8049.553,5.164832
8076.552,4.82316
8103.551,4.433116
8130.55,4.019458
8157.548,3.598598
8184.547,3.235155
8211.546,3.042042
8238.545,3.0204
8265.544,3.085279
8292.543,3.252517
8319.542,3.494438
8346.541,3.755786
8373.54,4.049901
8400.539,4.265384
8427.538,4.384136
8454.537,4.742112
8481.536,5.093287
8508.535,5.355951
8535.534,5.501619
8562.533,5.28061
8589.532,5.658859
8616.531,6.262816
8643.53,6.724488
8670.529,6.9988
8697.528,7.242951
8724.527,7.597354
8751.525,7.877815
8778.524,8.110336
8805.523,8.260413
8832.522,8.334639
8859.521,8.381831
8886.521,8.413106
8913.52,8.402027
8940.519,8.401767
8967.518,8.403456
8994.517,8.413286
9021.516,8.437668
9048.515,8.449006
9075.514,8.464683
9102.513,8.466671
9129.512,8.450309
9156.511,8.436948
9183.51,8.415504
9210.509,8.390002
9237.508,8.361711
9264.507,8.329985
9291.506,8.294216
9318.504,8.315655
9345.503,8.309565
9372.502,8.252251
9399.501,8.221521
9426.5,8.146448
9453.499,8.077717
9480.498,8.016309
9507.497,7.983552
9534.496,7.955731
9561.495,7.886147
9588.494,7.874898
9615.493,7.859602
9642.492,7.925106
9669.491,8.023993
9696.49,8.099483
9723.489,8.197017
9750.488,8.263131
9777.487,8.317015
9804.486,8.300737
9831.485,8.342456
9858.484,8.406998
9885.482,8.50912
9912.481,8.586664
9939.48,8.646332
9966.479,8.741027
9993.479,8.763402
10020.48,8.845928
10047.48,8.862636
10074.48,8.872769
10101.47,8.921131
10128.47,8.95936
10155.47,8.958338
10182.47,8.964962
10209.47,8.966801
10236.47,8.963462
10263.47,8.934451
10290.47,8.952661
10317.47,8.894721
10344.47,8.880051
10371.46,8.921958
10398.46,8.867146
10425.46,8.882319
10452.46,8.780478
10479.46,8.779286
10506.46,8.638095
10533.46,8.564117
10560.46,8.399365
10587.46,8.21501
10614.46,7.90783
10641.45,7.681501
10668.45,7.38482
10695.45,7.117458
10722.45,7.120357
10749.45,7.082592
10776.45,7.189599
10803.45,7.411481
10830.45,7.614411
10857.45,7.848139
10884.45,7.981071
10911.44,8.224084
10938.44,8.345391
10965.44,8.517781
10992.44,8.648303
11019.44,8.745125
11046.44,8.842278
11073.44,8.891496
11100.44,8.94643
11127.44,9.080743
11154.43,8.962777
11181.43,9.052899
11208.43,9.218692
11235.43,9.175849
11262.43,9.271155
11289.43,9.329268
11316.43,9.250013
11343.43,9.34816
11370.43,9.438163
11397.43,9.368551
11424.42,9.467073
11451.42,9.479185
11478.42,9.446362
11505.42,9.590099
11532.42,9.618349
11559.42,9.489242
11586.42,9.568561
11613.42,9.601656
11640.42,9.549742
11667.42,9.531697
11694.41,9.642633
11721.41,9.81919
11748.41,9.579216
11775.41,9.590352
11802.41,9.535467
11829.41,9.655027
11856.41,9.636105
11883.41,9.573182
11910.41,9.669189
11937.41,9.601963
11964.4,9.63768
11991.4,9.527931
11999.12,9.589207