File: Data/NIR/N1476LDPE_4.csv
Wavenumber,Intensity
3999.706,3.220595
4026.705,3.237974
4053.704,3.248366
4080.703,3.258269
4107.702,3.259267
4134.701,3.269744
4161.7,3.278828
4188.699,3.302976
4215.698,3.343599
4242.697,3.367454
4269.696,3.3825
4296.694,3.398481
4323.693,3.384315
4350.692,3.401849
4377.691,3.420912
4404.69,3.48609
4431.689,3.670663
4458.688,3.878552
4485.688,4.078997
4512.687,4.280042
4539.686,4.484615
4566.685,4.716522
4593.683,4.868585
4620.682,4.959653
4647.681,5.004047
4674.68,4.96918
4701.679,5.090944
4728.678,5.022049
4755.677,4.959072
4782.676,4.846665
4809.675,4.772718
4836.674,4.649177
4863.673,4.493634
4890.672,4.51667
4917.671,4.546631
4944.67,4.521322
4971.669,4.38098
4998.668,4.517104
5025.667,4.596802
5052.666,4.611979
5079.665,4.582654
5106.664,4.573783
5133.663,4.612253
5160.662,4.569215
5187.661,4.559468
5214.66,4.567802
5241.659,4.59807
5268.658,4.61339
5295.657,4.605168
5322.656,4.642733
5349.655,4.556318
5376.654,4.427399
5403.652,4.309683
5430.651,4.156108
5457.65,4.10943
5484.649,4.033207
5511.648,4.039018
5538.647,4.038193
5565.646,4.053448
5592.646,4.148377
5619.645,4.020681
5646.644,3.838648
5673.643,3.70373
5700.642,3.890185
5727.641,3.858062
5754.639,3.656307
5781.638,3.582927
5808.637,3.657307
5835.636,3.813588
5862.635,4.264801
5889.634,5.127116
5916.633,5.725153
5943.632,6.536864
5970.631,7.23618
5997.63,7.839248
6024.629,8.307324
6051.628,8.64262
6078.627,8.875813
6105.626,9.026713
6132.625,9.174383
6159.624,9.325193
6186.623,9.461547
6213.622,9.556523
6240.621,9.621247
6267.62,9.652331
6294.619,9.681366
6321.618,9.684558
6348.617,9.630862
6375.616,9.488523
6402.615,9.405372
6429.614,9.22963
6456.613,8.943047
6483.612,8.211447
6510.61,8.51539
6537.609,8.691937
6564.608,8.786101
6591.607,8.883581
6618.606,8.886973
6645.605,8.828505
6672.604,8.719774
6699.604,8.561736
6726.603,8.349075
6753.602,8.159908
6780.601,7.908153
6807.6,7.523407
6834.599,7.132346
6861.598,6.930761
6888.597,6.670854
6915.596,6.442575
6942.594,6.088716
6969.593,5.992304
6996.592,5.9193
7023.591,5.737004
7050.59,5.552007
7077.589,5.70083
7104.588,6.148835
7131.587,6.475932
7158.586,5.852905
7185.585,5.601487
7212.584,6.655825
7239.583,7.563584
7266.582,8.360503
7293.581,9.105551
7320.58,9.755929
7347.579,10.14652
7374.578,10.44257
7401.577,10.64143
7428.576,10.73323
7455.575,10.79786
7482.574,10.82593
7509.573,10.82255
7536.572,10.80416
7563.571,10.75939
7590.57,10.70935
7617.569,10.62656
7644.568,10.53356
7671.566,10.44674
7698.565,10.39503
7725.564,10.33335
7752.563,10.27443
7779.563,10.19872
7806.562,10.12574
7833.561,10.04464
7860.56,9.921774
7887.559,9.76058
7914.558,9.579381
7941.557,9.349641
7968.556,9.065797
7995.555,8.754262
8022.554,8.391473
8049.553,7.954741
8076.552,7.484852
8103.551,6.94766
8130.55,6.342213
8157.548,5.712435
8184.547,5.132674
8211.546,4.805095
8238.545,4.788113
8265.544,4.895366
8292.543,5.203052
8319.542,5.618806
8346.541,6.067755
8373.54,6.563832
8400.539,6.913719
8427.538,7.011704
8454.537,7.520005
8481.536,8.01526
8508.535,8.38908
8535.534,8.573049
8562.533,8.216084
8589.532,8.763555
8616.531,9.599653
8643.53,10.21104
8670.529,10.57588
8697.528,10.89257
8724.527,11.27484
8751.525,11.62502
8778.524,11.85827
8805.523,12.02938
8832.522,12.11367
8859.521,12.16097
8886.521,12.18612
8913.52,12.18348
8940.519,12.18838
8967.518,12.20086
8994.517,12.20489
9021.516,12.24726
9048.515,12.26909
9075.514,12.28955
9102.513,12.3128
9129.512,12.29939
9156.511,12.27379
9183.51,12.26171
9210.509,12.24329
9237.508,12.20549
9264.507,12.18912
9291.506,12.15285
9318.504,12.18159
9345.503,12.17034
9372.502,12.1156
9399.501,12.07531
9426.5,12.00543
9453.499,11.93773
9480.498,11.84993
9507.497,11.81253
9534.496,11.7848
9561.495,11.72052
9588.494,11.67442
9615.493,11.7034
9642.492,11.7617
9669.491,11.88838
9696.49,11.99863
9723.489,12.11878
9750.488,12.19386
9777.487,12.25322
9804.486,12.27155
9831.485,12.29169
9858.484,12.35083
9885.482,12.47351
9912.481,12.58767
9939.48,12.63485
9966.479,12.7114
9993.479,12.77598
10020.48,12.82335
10047.48,12.88034
10074.48,12.92384
10101.47,12.95626
10128.47,12.97958
10155.47,12.96771
10182.47,12.99998
10209.47,12.97799
10236.47,13.00896
10263.47,12.99254
10290.47,12.96286
10317.47,12.88471
10344.47,12.87333
10371.46,12.91627
10398.46,12.87107
10425.46,12.90287
10452.46,12.8049
10479.46,12.78795
10506.46,12.64364
10533.46,12.55777
10560.46,12.40748
10587.46,12.1011
10614.46,11.76635
10641.45,11.4751
10668.45,11.08949
10695.45,10.77231
10722.45,10.7145
10749.45,10.69637
10776.45,10.89219
10803.45,11.22363
10830.45,11.46533
10857.45,11.62436
10884.45,11.88916
10911.44,12.16513
10938.44,12.36824
10965.44,12.59358
10992.44,12.7548
11019.44,12.85836
11046.44,12.94833
11073.44,13.06373
11100.44,13.11609
11127.44,13.06997
11154.43,13.12532
11181.43,13.16529
11208.43,13.34618
11235.43,13.31126
11262.43,13.4805
11289.43,13.46777
11316.43,13.41707
11343.43,13.47695
11370.43,13.5707
11397.43,13.58806
11424.42,13.64753
11451.42,13.66339
11478.42,13.5742
11505.42,13.62907
11532.42,13.74733
11559.42,13.73007
11586.42,13.7376
11613.42,13.71773
11640.42,13.82862
11667.42,13.78319
11694.41,13.75629
11721.41,13.88557
11748.41,13.793
11775.41,13.73276
11802.41,13.72161
11829.41,13.74155
11856.41,13.54312
11883.41,13.67146
11910.41,13.70105
11937.41,13.87596
11964.4,13.86175
11991.4,13.61044
11999.12,13.81741