File: Data/NIR/N1476LDPE_1.csv
Wavenumber,Intensity
3999.706,4.442991
4026.705,4.459304
4053.704,4.478086
4080.703,4.488682
4107.702,4.493978
4134.701,4.503483
4161.7,4.516904
4188.699,4.541965
4215.698,4.593067
4242.697,4.627297
4269.696,4.657258
4296.694,4.682231
4323.693,4.654127
4350.692,4.680914
4377.691,4.704684
4404.69,4.811026
4431.689,5.130167
4458.688,5.512567
4485.688,5.871408
4512.687,6.226973
4539.686,6.582166
4566.685,6.968623
4593.683,7.214478
4620.682,7.357727
4647.681,7.432429
4674.68,7.368931
4701.679,7.554413
4728.678,7.442412
4755.677,7.334174
4782.676,7.145406
4809.675,7.027995
4836.674,6.807838
4863.673,6.539577
4890.672,6.584258
4917.671,6.632074
4944.67,6.582666
4971.669,6.347503
4998.668,6.569241
5025.667,6.701217
5052.666,6.729451
5079.665,6.68131
5106.664,6.660768
5133.663,6.73177
5160.662,6.651763
5187.661,6.637688
5214.66,6.646544
5241.659,6.695642
5268.658,6.72605
5295.657,6.701876
5322.656,6.767306
5349.655,6.625327
5376.654,6.399578
5403.652,6.187591
5430.651,5.918077
5457.65,5.838904
5484.649,5.696964
5511.648,5.703841
5538.647,5.706033
5565.646,5.730652
5592.646,5.900177
5619.645,5.674569
5646.644,5.354897
5673.643,5.120139
5700.642,5.448647
5727.641,5.394755
5754.639,5.059321
5781.638,4.961406
5808.637,5.061929
5835.636,5.312178
5862.635,6.094786
5889.634,7.568088
5916.633,8.541205
5943.632,9.811423
5970.631,10.85495
5997.63,11.75033
6024.629,12.43815
6051.628,12.92351
6078.627,13.25659
6105.626,13.4814
6132.625,13.68916
6159.624,13.90366
6186.623,14.11335
6213.622,14.24573
6240.621,14.34453
6267.62,14.38221
6294.619,14.42112
6321.618,14.43776
6348.617,14.35852
6375.616,14.15688
6402.615,14.0257
6429.614,13.76927
6456.613,13.3706
6483.612,12.29026
6510.61,12.74504
6537.609,12.98703
6564.608,13.13822
6591.607,13.27543
6618.606,13.28769
6645.605,13.19749
6672.604,13.04437
6699.604,12.80785
6726.603,12.50574
6753.602,12.21814
6780.601,11.85656
6807.6,11.27973
6834.599,10.69146
6861.598,10.38806
6888.597,10.00237
6915.596,9.647315
6942.594,9.084303
6969.593,8.937647
6996.592,8.836278
7023.591,8.533974
7050.59,8.239886
7077.589,8.477556
7104.588,9.197966
7131.587,9.700109
7158.586,8.723735
7185.585,8.299269
7212.584,9.970157
7239.583,11.34491
7266.582,12.53289
7293.581,13.64585
7320.58,14.57972
7347.579,15.15962
7374.578,15.60549
7401.577,15.87839
7428.576,16.02649
7455.575,16.1197
7482.574,16.15604
7509.573,16.14686
7536.572,16.12491
7563.571,16.06547
7590.57,15.99827
7617.569,15.88449
7644.568,15.73352
7671.566,15.61318
7698.565,15.54114
7725.564,15.44039
7752.563,15.3536
7779.563,15.24214
7806.562,15.14371
7833.561,15.00694
7860.56,14.8391
7887.559,14.60442
7914.558,14.3294
7941.557,13.99749
7968.556,13.59154
7995.555,13.12069
8022.554,12.57367
8049.553,11.92232
8076.552,11.21028
8103.551,10.40683
8130.55,9.457838
8157.548,8.468868
8184.547,7.501554
8211.546,6.968733
8238.545,6.944778
8265.544,7.115427
8292.543,7.646028
8319.542,8.301317
8346.541,9.018551
8373.54,9.819398
8400.539,10.3464
8427.538,10.51268
8454.537,11.30098
8481.536,12.03926
8508.535,12.6121
8535.534,12.87456
8562.533,12.35211
8589.532,13.20056
8616.531,14.43222
8643.53,15.33941
8670.529,15.88951
8697.528,16.39113
8724.527,16.95171
8751.525,17.46068
8778.524,17.82146
8805.523,18.05161
8832.522,18.20389
8859.521,18.26479
8886.521,18.31824
8913.52,18.33431
8940.519,18.29516
8967.518,18.33265
8994.517,18.35888
9021.516,18.41258
9048.515,18.44486
9075.514,18.45479
9102.513,18.49239
9129.512,18.50368
9156.511,18.48113
9183.51,18.43011
9210.509,18.38875
9237.508,18.33857
9264.507,18.35422
9291.506,18.32141
9318.504,18.31352
9345.503,18.31126
9372.502,18.24848
9399.501,18.18328
9426.5,18.08794
9453.499,17.98191
9480.498,17.89859
9507.497,17.842
9534.496,17.76505
9561.495,17.67265
9588.494,17.61766
9615.493,17.64362
9642.492,17.79886
9669.491,17.98842
9696.49,18.12667
9723.489,18.32924
9750.488,18.47035
9777.487,18.52149
9804.486,18.563
9831.485,18.59968
9858.484,18.71154
9885.482,18.90881
9912.481,19.03773
9939.48,19.19679
9966.479,19.298
9993.479,19.35739
10020.48,19.4419
10047.48,19.523
10074.48,19.64138
10101.47,19.65272
10128.47,19.7056
10155.47,19.71735
10182.47,19.72244
10209.47,19.78285
10236.47,19.76445
10263.47,19.7472
10290.47,19.70033
10317.47,19.5947
10344.47,19.59072
10371.46,19.64505
10398.46,19.61324
10425.46,19.64273
10452.46,19.51715
10479.46,19.44001
10506.46,19.33966
10533.46,19.15116
10560.46,18.86353
10587.46,18.56811
10614.46,18.02719
10641.45,17.51155
10668.45,16.92083
10695.45,16.50077
10722.45,16.31837
10749.45,16.3826
10776.45,16.67958
10803.45,17.0519
10830.45,17.49673
10857.45,17.8514
10884.45,18.36125
10911.44,18.61665
10938.44,19.00156
10965.44,19.33178
10992.44,19.57771
11019.44,19.75477
11046.44,19.78996
11073.44,20.00067
11100.44,20.09391
11127.44,20.10399
11154.43,20.2434
11181.43,20.34384
11208.43,20.46721
11235.43,20.65327
11262.43,20.68497
11289.43,20.78374
11316.43,20.70389
11343.43,20.87381
11370.43,20.84885
11397.43,20.94506
11424.42,21.02907
11451.42,21.09998
11478.42,21.18653
11505.42,21.12378
11532.42,21.2084
11559.42,21.25682
11586.42,21.25746
11613.42,21.33585
11640.42,21.374
11667.42,21.26762
11694.41,21.4546
11721.41,21.30735
11748.41,21.28726
11775.41,21.26877
11802.41,21.2182
11829.41,21.12821
11856.41,21.13512
11883.41,21.27243
11910.41,21.32188
11937.41,21.22873
11964.4,21.16547
11991.4,21.36991
11999.12,21.35377