File: Data/NIR/S0024LDPE_2.csv
Wavenumber,Intensity
3999.706,3.297653
4026.705,3.315172
4053.704,3.329686
4080.703,3.343613
4107.702,3.346093
4134.701,3.355841
4161.7,3.364346
4188.699,3.383162
4215.698,3.418608
4242.697,3.44408
4269.696,3.459299
4296.694,3.474422
4323.693,3.458188
4350.692,3.479251
4377.691,3.482106
4404.69,3.496431
4431.689,3.579609
4458.688,3.769691
4485.688,3.97739
4512.687,4.223357
4539.686,4.482238
4566.685,4.767154
4593.683,4.963681
4620.682,5.085471
4647.681,5.159191
4674.68,5.119164
4701.679,5.252352
4728.678,5.162024
4755.677,5.088974
4782.676,4.939708
4809.675,4.851194
4836.674,4.682325
4863.673,4.485568
4890.672,4.513972
4917.671,4.545659
4944.67,4.511262
4971.669,4.335616
4998.668,4.482343
5025.667,4.566869
5052.666,4.586285
5079.665,4.553926
5106.664,4.534033
5133.663,4.579184
5160.662,4.525757
5187.661,4.514363
5214.66,4.518161
5241.659,4.548935
5268.658,4.560731
5295.657,4.550753
5322.656,4.585936
5349.655,4.488957
5376.654,4.333108
5403.652,4.198597
5430.651,4.038698
5457.65,3.991334
5484.649,3.91843
5511.648,3.920899
5538.647,3.922961
5565.646,3.930193
5592.646,4.008345
5619.645,3.895818
5646.644,3.765302
5673.643,3.699906
5700.642,3.796517
5727.641,3.787825
5754.639,3.69315
5781.638,3.680603
5808.637,3.692671
5835.636,3.752936
5862.635,4.03835
5889.634,4.900526
5916.633,5.654677
5943.632,6.97713
5970.631,7.989615
5997.63,8.830603
6024.629,9.484439
6051.628,9.948604
6078.627,10.25486
6105.626,10.40701
6132.625,10.64908
6159.624,10.93268
6186.623,11.17611
6213.622,11.31983
6240.621,11.41839
6267.62,11.46322
6294.619,11.49889
6321.618,11.50301
6348.617,11.42063
6375.616,11.22797
6402.615,11.09101
6429.614,10.8434
6456.613,10.47536
6483.612,9.466792
6510.61,9.832883
6537.609,10.0227
6564.608,10.12915
6591.607,10.22462
6618.606,10.21038
6645.605,10.10598
6672.604,9.943121
6699.604,9.709023
6726.603,9.415772
6753.602,9.131082
6780.601,8.783569
6807.6,8.262862
6834.599,7.746706
6861.598,7.465414
6888.597,7.114624
6915.596,6.782035
6942.594,6.327744
6969.593,6.182264
6996.592,6.095621
7023.591,5.886024
7050.59,5.785477
7077.589,5.862474
7104.588,6.362177
7131.587,6.749696
7158.586,5.962461
7185.585,5.599998
7212.584,6.886114
7239.583,8.037852
7266.582,9.058325
7293.581,10.04061
7320.58,10.93223
7347.579,11.42239
7374.578,11.93469
7401.577,12.27624
7428.576,12.4385
7455.575,12.51873
7482.574,12.54873
7509.573,12.52968
7536.572,12.49744
7563.571,12.42942
7590.57,12.35342
7617.569,12.23125
7644.568,12.0797
7671.566,11.94451
7698.565,11.86003
7725.564,11.74476
7752.563,11.64331
7779.563,11.5207
7806.562,11.41013
7833.561,11.27853
7860.56,11.09152
7887.559,10.86666
7914.558,10.59836
7941.557,10.28008
7968.556,9.900667
7995.555,9.474858
8022.554,8.979635
8049.553,8.416263
8076.552,7.790658
8103.551,7.118799
8130.55,6.349007
8157.548,5.586152
8184.547,4.914239
8211.546,4.548628
8238.545,4.52056
8265.544,4.619558
8292.543,4.950899
8319.542,5.379284
8346.541,5.886915
8373.54,6.424629
8400.539,6.819979
8427.538,6.994861
8454.537,7.652288
8481.536,8.258018
8508.535,8.734846
8535.534,8.961036
8562.533,8.606073
8589.532,9.281876
8616.531,10.26782
8643.53,11.03993
8670.529,11.49711
8697.528,11.91218
8724.527,12.44282
8751.525,12.9252
8778.524,13.27199
8805.523,13.50564
8832.522,13.62747
8859.521,13.70386
8886.521,13.7125
8913.52,13.72868
8940.519,13.70071
8967.518,13.6989
8994.517,13.71305
9021.516,13.74566
9048.515,13.77355
9075.514,13.77201
9102.513,13.78678
9129.512,13.75755
9156.511,13.73944
9183.51,13.68418
9210.509,13.6284
9237.508,13.58807
9264.507,13.55082
9291.506,13.53108
9318.504,13.50777
9345.503,13.48515
9372.502,13.41335
9399.501,13.34245
9426.5,13.26192
9453.499,13.14996
9480.498,13.0727
9507.497,12.99718
9534.496,12.92459
9561.495,12.85382
9588.494,12.7737
9615.493,12.80112
9642.492,12.9155
9669.491,13.05456
9696.49,13.17364
9723.489,13.31222
9750.488,13.44173
9777.487,13.49541
9804.486,13.49446
9831.485,13.52888
9858.484,13.64264
9885.482,13.8233
9912.481,13.94306
9939.48,14.06993
9966.479,14.17752
9993.479,14.24658
10020.48,14.30033
10047.48,14.34581
10074.48,14.44735
10101.47,14.48948
10128.47,14.49677
10155.47,14.51029
10182.47,14.52444
10209.47,14.51856
10236.47,14.52042
10263.47,14.50459
10290.47,14.48192
10317.47,14.4454
10344.47,14.42785
10371.46,14.42136
10398.46,14.37742
10425.46,14.36834
10452.46,14.25875
10479.46,14.19913
10506.46,14.06894
10533.46,13.90058
10560.46,13.6488
10587.46,13.35304
10614.46,12.96961
10641.45,12.49668
10668.45,12.01128
10695.45,11.6697
10722.45,11.522
10749.45,11.61082
10776.45,11.79931
10803.45,12.05788
10830.45,12.41569
10857.45,12.75958
10884.45,13.06888
10911.44,13.33022
10938.44,13.62017
10965.44,13.89851
10992.44,14.08944
11019.44,14.31
11046.44,14.32343
11073.44,14.49391
11100.44,14.5326
11127.44,14.64113
11154.43,14.68052
11181.43,14.69769
11208.43,14.89189
11235.43,14.97065
11262.43,15.07606
11289.43,15.08095
11316.43,15.07752
11343.43,15.28673
11370.43,15.23581
11397.43,15.38422
11424.42,15.42952
11451.42,15.53495
11478.42,15.52194
11505.42,15.49306
11532.42,15.58192
11559.42,15.73872
11586.42,15.7326
11613.42,15.67876
11640.42,15.70534
11667.42,15.53747
11694.41,15.68681
11721.41,15.71244
11748.41,15.78799
11775.41,15.71797
11802.41,15.55497
11829.41,15.64607
11856.41,15.52198
11883.41,15.56168
11910.41,15.51607
11937.41,15.52379
11964.4,15.46769
11991.4,15.59382
11999.12,15.57014