File: Data/NIR/S0024LDPE_5.csv
Wavenumber,Intensity
3999.706,3.716538
4026.705,3.738798
4053.704,3.754743
4080.703,3.771409
4107.702,3.772171
4134.701,3.788413
4161.7,3.790243
4188.699,3.815216
4215.698,3.850986
4242.697,3.87443
4269.696,3.891797
4296.694,3.907271
4323.693,3.899275
4350.692,3.912905
4377.691,3.916138
4404.69,3.93323
4431.689,3.997036
4458.688,4.117526
4485.688,4.247706
4512.687,4.398515
4539.686,4.568806
4566.685,4.765579
4593.683,4.903347
4620.682,4.990751
4647.681,5.03972
4674.68,5.016
4701.679,5.117936
4728.678,5.061067
4755.677,5.016149
4782.676,4.920368
4809.675,4.861673
4836.674,4.754213
4863.673,4.631602
4890.672,4.647071
4917.671,4.667257
4944.67,4.653405
4971.669,4.538721
4998.668,4.637253
5025.667,4.688162
5052.666,4.700459
5079.665,4.685139
5106.664,4.674054
5133.663,4.704681
5160.662,4.670485
5187.661,4.660629
5214.66,4.668492
5241.659,4.686934
5268.658,4.701585
5295.657,4.686969
5322.656,4.712013
5349.655,4.652218
5376.654,4.564618
5403.652,4.468212
5430.651,4.372699
5457.65,4.337589
5484.649,4.289834
5511.648,4.285483
5538.647,4.289625
5565.646,4.301444
5592.646,4.351046
5619.645,4.279263
5646.644,4.1904
5673.643,4.142531
5700.642,4.210795
5727.641,4.210044
5754.639,4.130702
5781.638,4.119488
5808.637,4.130247
5835.636,4.183048
5862.635,4.383019
5889.634,4.936395
5916.633,5.451895
5943.632,6.387336
5970.631,7.154447
5997.63,7.815227
6024.629,8.33781
6051.628,8.720135
6078.627,8.983025
6105.626,9.107642
6132.625,9.320172
6159.624,9.568046
6186.623,9.766777
6213.622,9.892709
6240.621,9.98086
6267.62,10.0307
6294.619,10.0628
6321.618,10.06848
6348.617,9.993386
6375.616,9.823028
6402.615,9.715241
6429.614,9.497038
6456.613,9.178703
6483.612,8.340911
6510.61,8.640126
6537.609,8.80865
6564.608,8.897639
6591.607,8.978506
6618.606,8.966194
6645.605,8.878965
6672.604,8.736399
6699.604,8.545143
6726.603,8.311555
6753.602,8.080091
6780.601,7.80165
6807.6,7.385473
6834.599,6.98496
6861.598,6.767729
6888.597,6.499998
6915.596,6.260251
6942.594,5.919932
6969.593,5.81706
6996.592,5.751534
7023.591,5.609755
7050.59,5.535392
7077.589,5.592532
7104.588,5.953381
7131.587,6.228945
7158.586,5.651679
7185.585,5.41691
7212.584,6.346228
7239.583,7.226705
7266.582,8.042845
7293.581,8.884954
7320.58,9.615851
7347.579,10.06404
7374.578,10.51358
7401.577,10.8207
7428.576,10.95892
7455.575,11.03364
7482.574,11.06969
7509.573,11.06694
7536.572,11.03092
7563.571,10.96238
7590.57,10.89754
7617.569,10.79051
7644.568,10.65377
7671.566,10.53418
7698.565,10.44039
7725.564,10.35897
7752.563,10.27029
7779.563,10.14665
7806.562,10.06207
7833.561,9.94239
7860.56,9.789761
7887.559,9.590955
7914.558,9.345361
7941.557,9.077143
7968.556,8.748267
7995.555,8.397416
8022.554,7.996747
8049.553,7.551453
8076.552,7.065707
8103.551,6.535913
8130.55,5.973056
8157.548,5.434136
8184.547,4.95704
8211.546,4.731765
8238.545,4.72194
8265.544,4.788486
8292.543,4.993532
8319.542,5.288249
8346.541,5.647069
8373.54,6.046543
8400.539,6.338321
8427.538,6.475024
8454.537,6.965449
8481.536,7.436682
8508.535,7.83018
8535.534,8.012518
8562.533,7.726217
8589.532,8.274726
8616.531,9.106627
8643.53,9.778843
8670.529,10.19607
8697.528,10.56032
8724.527,11.0524
8751.525,11.49267
8778.524,11.81512
8805.523,12.04409
8832.522,12.17109
8859.521,12.23905
8886.521,12.27997
8913.52,12.27327
8940.519,12.25161
8967.518,12.25017
8994.517,12.29297
9021.516,12.29449
9048.515,12.32257
9075.514,12.36199
9102.513,12.3521
9129.512,12.33613
9156.511,12.29736
9183.51,12.26961
9210.509,12.22794
9237.508,12.19767
9264.507,12.1272
9291.506,12.08166
9318.504,12.10597
9345.503,12.06963
9372.502,12.01534
9399.501,11.93974
9426.5,11.88256
9453.499,11.77963
9480.498,11.68327
9507.497,11.63064
9534.496,11.56559
9561.495,11.49319
9588.494,11.4321
9615.493,11.452
9642.492,11.54048
9669.491,11.6779
9696.49,11.83804
9723.489,11.94179
9750.488,12.06809
9777.487,12.13737
9804.486,12.13764
9831.485,12.18364
9858.484,12.30189
9885.482,12.44539
9912.481,12.58089
9939.48,12.68993
9966.479,12.84081
9993.479,12.87861
10020.48,12.95347
10047.48,13.01694
10074.48,13.03958
10101.47,13.11334
10128.47,13.14372
10155.47,13.13884
10182.47,13.18534
10209.47,13.17477
10236.47,13.14033
10263.47,13.18178
10290.47,13.15317
10317.47,13.09453
10344.47,13.10527
10371.46,13.09421
10398.46,13.07674
10425.46,12.99941
10452.46,12.95257
10479.46,12.86887
10506.46,12.76726
10533.46,12.56855
10560.46,12.35193
10587.46,12.06443
10614.46,11.72225
10641.45,11.28475
10668.45,10.84398
10695.45,10.5128
10722.45,10.41545
10749.45,10.44826
10776.45,10.64367
10803.45,10.95237
10830.45,11.26658
10857.45,11.53709
10884.45,11.87836
10911.44,12.09536
10938.44,12.39002
10965.44,12.65263
10992.44,12.79767
11019.44,12.93103
11046.44,13.0727
11073.44,13.16776
11100.44,13.29158
11127.44,13.23945
11154.43,13.40975
11181.43,13.41414
11208.43,13.60088
11235.43,13.66211
11262.43,13.86903
11289.43,13.82393
11316.43,13.87805
11343.43,14.01481
11370.43,14.04962
11397.43,14.0266
11424.42,14.25864
11451.42,14.16835
11478.42,14.17201
11505.42,14.10174
11532.42,14.31397
11559.42,14.33538
11586.42,14.32161
11613.42,14.36303
11640.42,14.405
11667.42,14.43641
11694.41,14.33488
11721.41,14.34781
11748.41,14.48928
11775.41,14.38786
11802.41,14.38908
11829.41,14.40715
11856.41,14.27691
11883.41,14.41123
11910.41,14.1871
11937.41,14.10823
11964.4,14.15901
11991.4,14.1016
11999.12,14.0251