File: Data/NIR/S0024LDPE_6.csv
Wavenumber,Intensity
3999.706,3.613563
4026.705,3.629427
4053.704,3.648337
4080.703,3.658923
4107.702,3.662509
4134.701,3.676003
4161.7,3.678848
4188.699,3.705393
4215.698,3.742692
4242.697,3.7625
4269.696,3.784656
4296.694,3.800267
4323.693,3.784573
4350.692,3.806083
4377.691,3.812931
4404.69,3.82525
4431.689,3.890304
4458.688,4.019581
4485.688,4.155696
4512.687,4.30382
4539.686,4.469039
4566.685,4.655291
4593.683,4.787088
4620.682,4.866094
4647.681,4.915526
4674.68,4.89406
4701.679,4.987798
4728.678,4.939807
4755.677,4.899211
4782.676,4.814695
4809.675,4.756948
4836.674,4.656896
4863.673,4.53898
4890.672,4.554128
4917.671,4.576005
4944.67,4.558517
4971.669,4.444213
4998.668,4.544176
5025.667,4.595606
5052.666,4.609419
5079.665,4.597099
5106.664,4.581928
5133.663,4.61212
5160.662,4.578918
5187.661,4.572002
5214.66,4.575253
5241.659,4.595104
5268.658,4.608582
5295.657,4.594919
5322.656,4.623734
5349.655,4.5669
5376.654,4.475323
5403.652,4.378839
5430.651,4.280309
5457.65,4.242315
5484.649,4.194641
5511.648,4.194262
5538.647,4.1973
5565.646,4.205347
5592.646,4.258349
5619.645,4.186326
5646.644,4.093527
5673.643,4.041048
5700.642,4.114508
5727.641,4.111022
5754.639,4.029531
5781.638,4.015702
5808.637,4.032829
5835.636,4.085421
5862.635,4.285366
5889.634,4.839196
5916.633,5.321365
5943.632,6.156455
5970.631,6.812689
5997.63,7.356345
6024.629,7.781588
6051.628,8.090864
6078.627,8.302268
6105.626,8.403766
6132.625,8.567951
6159.624,8.764429
6186.623,8.925848
6213.622,9.025623
6240.621,9.096851
6267.62,9.138104
6294.619,9.167117
6321.618,9.171651
6348.617,9.114925
6375.616,8.982803
6402.615,8.899053
6429.614,8.727608
6456.613,8.480815
6483.612,7.807055
6510.61,8.051693
6537.609,8.190041
6564.608,8.259476
6591.607,8.326304
6618.606,8.32379
6645.605,8.250867
6672.604,8.135004
6699.604,7.979925
6726.603,7.792402
6753.602,7.606803
6780.601,7.376519
6807.6,7.030104
6834.599,6.69495
6861.598,6.514577
6888.597,6.282773
6915.596,6.069215
6942.594,5.775578
6969.593,5.681748
6996.592,5.621702
7023.591,5.482853
7050.59,5.420387
7077.589,5.467283
7104.588,5.796893
7131.587,6.044703
7158.586,5.529691
7185.585,5.304283
7212.584,6.149289
7239.583,6.906614
7266.582,7.594797
7293.581,8.279639
7320.58,8.874608
7347.579,9.223701
7374.578,9.585053
7401.577,9.823622
7428.576,9.933094
7455.575,9.996786
7482.574,10.02016
7509.573,10.01482
7536.572,9.992911
7563.571,9.945028
7590.57,9.885834
7617.569,9.811345
7644.568,9.705142
7671.566,9.617017
7698.565,9.547292
7725.564,9.47817
7752.563,9.400294
7779.563,9.321769
7806.562,9.243694
7833.561,9.155377
7860.56,9.037055
7887.559,8.877916
7914.558,8.694965
7941.557,8.479355
7968.556,8.205737
7995.555,7.921123
8022.554,7.587882
8049.553,7.209226
8076.552,6.791573
8103.551,6.335845
8130.55,5.830855
8157.548,5.331062
8184.547,4.8765
8211.546,4.649198
8238.545,4.632562
8265.544,4.708896
8292.543,4.918208
8319.542,5.195745
8346.541,5.532485
8373.54,5.895942
8400.539,6.170425
8427.538,6.27603
8454.537,6.718462
8481.536,7.124678
8508.535,7.464425
8535.534,7.605578
8562.533,7.376983
8589.532,7.846198
8616.531,8.530969
8643.53,9.07429
8670.529,9.408149
8697.528,9.703631
8724.527,10.07317
8751.525,10.42153
8778.524,10.67909
8805.523,10.85081
8832.522,10.97712
8859.521,11.00765
8886.521,11.03903
8913.52,11.03888
8940.519,11.0226
8967.518,11.03278
8994.517,11.0447
9021.516,11.06959
9048.515,11.0885
9075.514,11.10908
9102.513,11.09847
9129.512,11.10098
9156.511,11.07142
9183.51,11.04253
9210.509,11.02009
9237.508,10.99746
9264.507,10.94259
9291.506,10.93283
9318.504,10.93818
9345.503,10.9142
9372.502,10.86332
9399.501,10.83009
9426.5,10.77323
9453.499,10.69998
9480.498,10.62652
9507.497,10.59283
9534.496,10.51265
9561.495,10.45945
9588.494,10.41905
9615.493,10.45455
9642.492,10.52527
9669.491,10.63722
9696.49,10.741
9723.489,10.84406
9750.488,10.94187
9777.487,10.9938
9804.486,10.99808
9831.485,11.03005
9858.484,11.14866
9885.482,11.21552
9912.481,11.36637
9939.48,11.42423
9966.479,11.55036
9993.479,11.58932
10020.48,11.6163
10047.48,11.68194
10074.48,11.69106
10101.47,11.7631
10128.47,11.7985
10155.47,11.82564
10182.47,11.83215
10209.47,11.82872
10236.47,11.80854
10263.47,11.86155
10290.47,11.84271
10317.47,11.79734
10344.47,11.77807
10371.46,11.74772
10398.46,11.74478
10425.46,11.72864
10452.46,11.66938
10479.46,11.62349
10506.46,11.52301
10533.46,11.37737
10560.46,11.24665
10587.46,11.02617
10614.46,10.73538
10641.45,10.37456
10668.45,10.06563
10695.45,9.766195
10722.45,9.723072
10749.45,9.74719
10776.45,9.884117
10803.45,10.13582
10830.45,10.35651
10857.45,10.63366
10884.45,10.84366
10911.44,11.0742
10938.44,11.28974
10965.44,11.46218
10992.44,11.67185
11019.44,11.74848
11046.44,11.85745
11073.44,11.95031
11100.44,12.01328
11127.44,11.95773
11154.43,12.1381
11181.43,12.11343
11208.43,12.25517
11235.43,12.30034
11262.43,12.44534
11289.43,12.42029
11316.43,12.51024
11343.43,12.58175
11370.43,12.66349
11397.43,12.59501
11424.42,12.77928
11451.42,12.77833
11478.42,12.74639
11505.42,12.74083
11532.42,12.89832
11559.42,12.88066
11586.42,12.84518
11613.42,12.90777
11640.42,12.91615
11667.42,12.99235
11694.41,12.96403
11721.41,12.93461
11748.41,13.03117
11775.41,13.00987
11802.41,12.90483
11829.41,12.86456
11856.41,12.7729
11883.41,12.83168
11910.41,12.82765
11937.41,12.74607
11964.4,12.67996
11991.4,12.59134
11999.12,12.6371