File: Data/NIR/S0024LDPE_4.csv
Wavenumber,Intensity
3999.706,1.227147
4026.705,1.229859
4053.704,1.235289
4080.703,1.242578
4107.702,1.23848
4134.701,1.247562
4161.7,1.244436
4188.699,1.260084
4215.698,1.269839
4242.697,1.276753
4269.696,1.283325
4296.694,1.29493
4323.693,1.284496
4350.692,1.29237
4377.691,1.296688
4404.69,1.307316
4431.689,1.409361
4458.688,1.617659
4485.688,1.831142
4512.687,2.077676
4539.686,2.310507
4566.685,2.56246
4593.683,2.731883
4620.682,2.830209
4647.681,2.893072
4674.68,2.848673
4701.679,2.964983
4728.678,2.870985
4755.677,2.802098
4782.676,2.662925
4809.675,2.573598
4836.674,2.418016
4863.673,2.236699
4890.672,2.253084
4917.671,2.281124
4944.67,2.251728
4971.669,2.079867
4998.668,2.224832
5025.667,2.304118
5052.666,2.315857
5079.665,2.282559
5106.664,2.259073
5133.663,2.296358
5160.662,2.244436
5187.661,2.228702
5214.66,2.234387
5241.659,2.25894
5268.658,2.271894
5295.657,2.25671
5322.656,2.291171
5349.655,2.197979
5376.654,2.050608
5403.652,1.913961
5430.651,1.752928
5457.65,1.710722
5484.649,1.637225
5511.648,1.632377
5538.647,1.630233
5565.646,1.645328
5592.646,1.725282
5619.645,1.6106
5646.644,1.471968
5673.643,1.398244
5700.642,1.499892
5727.641,1.492017
5754.639,1.383491
5781.638,1.365478
5808.637,1.379654
5835.636,1.451028
5862.635,1.750539
5889.634,2.559726
5916.633,3.232203
5943.632,4.354335
5970.631,5.208175
5997.63,5.903582
6024.629,6.445625
6051.628,6.829565
6078.627,7.094169
6105.626,7.219583
6132.625,7.428638
6159.624,7.664426
6186.623,7.863776
6213.622,7.985207
6240.621,8.069129
6267.62,8.115695
6294.619,8.147314
6321.618,8.15125
6348.617,8.07403
6375.616,7.906034
6402.615,7.799885
6429.614,7.583643
6456.613,7.269688
6483.612,6.418681
6510.61,6.72349
6537.609,6.894708
6564.608,6.98594
6591.607,7.068213
6618.606,7.053252
6645.605,6.964098
6672.604,6.820415
6699.604,6.622766
6726.603,6.38348
6753.602,6.141745
6780.601,5.84994
6807.6,5.418402
6834.599,4.979575
6861.598,4.743102
6888.597,4.444543
6915.596,4.173326
6942.594,3.77691
6969.593,3.658602
6996.592,3.579008
7023.591,3.402694
7050.59,3.31364
7077.589,3.387666
7104.588,3.816889
7131.587,4.149405
7158.586,3.469474
7185.585,3.160058
7212.584,4.261886
7239.583,5.231369
7266.582,6.083246
7293.581,6.924412
7320.58,7.664942
7347.579,8.092688
7374.578,8.525928
7401.577,8.841706
7428.576,8.964097
7455.575,9.042209
7482.574,9.074967
7509.573,9.064144
7536.572,9.029745
7563.571,8.966558
7590.57,8.898127
7617.569,8.795238
7644.568,8.665295
7671.566,8.550033
7698.565,8.462887
7725.564,8.380077
7752.563,8.281953
7779.563,8.174421
7806.562,8.079936
7833.561,7.96208
7860.56,7.808564
7887.559,7.615679
7914.558,7.382994
7941.557,7.101811
7968.556,6.780414
7995.555,6.416894
8022.554,6.001191
8049.553,5.526071
8076.552,5.000543
8103.551,4.42355
8130.55,3.756705
8157.548,3.099205
8184.547,2.492492
8211.546,2.172431
8238.545,2.151645
8265.544,2.237592
8292.543,2.532017
8319.542,2.927322
8346.541,3.358245
8373.54,3.83401
8400.539,4.179153
8427.538,4.316972
8454.537,4.869429
8481.536,5.38576
8508.535,5.798194
8535.534,5.999377
8562.533,5.69403
8589.532,6.260584
8616.531,7.109492
8643.53,7.771224
8670.529,8.169808
8697.528,8.527242
8724.527,8.989418
8751.525,9.416664
8778.524,9.737285
8805.523,9.933352
8832.522,10.05951
8859.521,10.11749
8886.521,10.15726
8913.52,10.14406
8940.519,10.13232
8967.518,10.12878
8994.517,10.15349
9021.516,10.15713
9048.515,10.17566
9075.514,10.21289
9102.513,10.20326
9129.512,10.18161
9156.511,10.14983
9183.51,10.11417
9210.509,10.07752
9237.508,10.03582
9264.507,9.99351
9291.506,9.948954
9318.504,9.957943
9345.503,9.933308
9372.502,9.875668
9399.501,9.800344
9426.5,9.745165
9453.499,9.632507
9480.498,9.564024
9507.497,9.494847
9534.496,9.419809
9561.495,9.3557
9588.494,9.30579
9615.493,9.316908
9642.492,9.415975
9669.491,9.539306
9696.49,9.664824
9723.489,9.778051
9750.488,9.896486
9777.487,9.972329
9804.486,9.963398
9831.485,9.965394
9858.484,10.11818
9885.482,10.25337
9912.481,10.38916
9939.48,10.50483
9966.479,10.61116
9993.479,10.63481
10020.48,10.73084
10047.48,10.78366
10074.48,10.80753
10101.47,10.86617
10128.47,10.90195
10155.47,10.90609
10182.47,10.91509
10209.47,10.92182
10236.47,10.91695
10263.47,10.90618
10290.47,10.89399
10317.47,10.8566
10344.47,10.87486
10371.46,10.83024
10398.46,10.78806
10425.46,10.77483
10452.46,10.67014
10479.46,10.62741
10506.46,10.49811
10533.46,10.33643
10560.46,10.11999
10587.46,9.842071
10614.46,9.529183
10641.45,9.044739
10668.45,8.641745
10695.45,8.351898
10722.45,8.250371
10749.45,8.328018
10776.45,8.490935
10803.45,8.767055
10830.45,9.080415
10857.45,9.265637
10884.45,9.63014
10911.44,9.860262
10938.44,10.12075
10965.44,10.40432
10992.44,10.55488
11019.44,10.66361
11046.44,10.76503
11073.44,10.90673
11100.44,10.93898
11127.44,10.96812
11154.43,11.13654
11181.43,11.14924
11208.43,11.32995
11235.43,11.38278
11262.43,11.54904
11289.43,11.50518
11316.43,11.61863
11343.43,11.72419
11370.43,11.72403
11397.43,11.73199
11424.42,11.84689
11451.42,11.86829
11478.42,11.74118
11505.42,11.85746
11532.42,11.97849
11559.42,11.98261
11586.42,11.96665
11613.42,12.01373
11640.42,12.04739
11667.42,12.0585
11694.41,12.03087
11721.41,12.06424
11748.41,12.03918
11775.41,11.97051
11802.41,11.94855
11829.41,11.93669
11856.41,11.92114
11883.41,11.90016
11910.41,11.66689
11937.41,11.74714
11964.4,11.7459
11991.4,11.625
11999.12,11.51933