File: Data/NIR/S0024LDPE_3.csv
Wavenumber,Intensity
3999.706,3.582233
4026.705,3.601472
4053.704,3.616914
4080.703,3.625321
4107.702,3.633873
4134.701,3.64098
4161.7,3.655867
4188.699,3.670354
4215.698,3.715629
4242.697,3.739429
4269.696,3.763805
4296.694,3.775801
4323.693,3.753928
4350.692,3.784693
4377.691,3.79413
4404.69,3.813967
4431.689,3.953909
4458.688,4.230513
4485.688,4.515502
4512.687,4.839248
4539.686,5.157153
4566.685,5.498624
4593.683,5.726678
4620.682,5.866426
4647.681,5.944514
4674.68,5.894956
4701.679,6.050956
4728.678,5.94929
4755.677,5.869563
4782.676,5.69575
4809.675,5.586456
4836.674,5.385895
4863.673,5.144981
4890.672,5.178993
4917.671,5.21951
4944.67,5.176787
4971.669,4.953791
4998.668,5.143045
5025.667,5.246706
5052.666,5.265895
5079.665,5.225324
5106.664,5.197485
5133.663,5.254926
5160.662,5.186001
5187.661,5.168528
5214.66,5.16937
5241.659,5.202119
5268.658,5.225146
5295.657,5.205957
5322.656,5.251664
5349.655,5.135854
5376.654,4.94349
5403.652,4.759894
5430.651,4.55461
5457.65,4.483735
5484.649,4.379303
5511.648,4.381412
5538.647,4.383392
5565.646,4.398287
5592.646,4.507263
5619.645,4.346102
5646.644,4.152377
5673.643,4.046796
5700.642,4.200928
5727.641,4.184804
5754.639,4.028516
5781.638,4.006478
5808.637,4.026389
5835.636,4.12232
5862.635,4.54029
5889.634,5.615679
5916.633,6.460203
5943.632,7.820677
5970.631,8.803042
5997.63,9.589397
6024.629,10.19093
6051.628,10.61073
6078.627,10.88029
6105.626,11.01302
6132.625,11.23108
6159.624,11.48403
6186.623,11.69111
6213.622,11.82184
6240.621,11.9027
6267.62,11.94344
6294.619,11.9768
6321.618,11.98234
6348.617,11.90718
6375.616,11.73413
6402.615,11.61522
6429.614,11.38945
6456.613,11.05876
6483.612,10.14758
6510.61,10.48413
6537.609,10.65752
6564.608,10.75195
6591.607,10.84137
6618.606,10.82149
6645.605,10.7299
6672.604,10.58251
6699.604,10.36688
6726.603,10.09764
6753.602,9.841815
6780.601,9.517061
6807.6,9.030688
6834.599,8.530766
6861.598,8.261893
6888.597,7.914021
6915.596,7.588184
6942.594,7.11145
6969.593,6.968613
6996.592,6.867839
7023.591,6.652889
7050.59,6.539456
7077.589,6.618838
7104.588,7.144586
7131.587,7.530211
7158.586,6.720365
7185.585,6.336706
7212.584,7.677414
7239.583,8.804776
7266.582,9.761777
7293.581,10.67985
7320.58,11.45637
7347.579,11.91064
7374.578,12.34945
7401.577,12.64835
7428.576,12.77809
7455.575,12.8566
7482.574,12.88284
7509.573,12.86596
7536.572,12.8358
7563.571,12.7793
7590.57,12.70387
7617.569,12.60638
7644.568,12.46503
7671.566,12.34645
7698.565,12.27083
7725.564,12.17298
7752.563,12.08279
7779.563,11.97143
7806.562,11.87243
7833.561,11.75194
7860.56,11.58989
7887.559,11.38877
7914.558,11.13828
7941.557,10.8498
7968.556,10.51113
7995.555,10.12179
8022.554,9.6576
8049.553,9.131582
8076.552,8.5465
8103.551,7.880346
8130.55,7.114384
8157.548,6.296762
8184.547,5.54145
8211.546,5.115422
8238.545,5.081197
8265.544,5.207311
8292.543,5.587368
8319.542,6.076412
8346.541,6.609951
8373.54,7.184048
8400.539,7.581811
8427.538,7.752311
8454.537,8.399194
8481.536,8.98421
8508.535,9.419847
8535.534,9.635219
8562.533,9.307639
8589.532,9.932665
8616.531,10.86513
8643.53,11.54737
8670.529,11.95169
8697.528,12.33834
8724.527,12.80499
8751.525,13.20303
8778.524,13.52237
8805.523,13.73333
8832.522,13.85683
8859.521,13.89821
8886.521,13.91703
8913.52,13.92708
8940.519,13.9089
8967.518,13.919
8994.517,13.91888
9021.516,13.9421
9048.515,13.97804
9075.514,13.96518
9102.513,13.98074
9129.512,13.95
9156.511,13.93861
9183.51,13.87991
9210.509,13.85594
9237.508,13.79713
9264.507,13.78049
9291.506,13.74734
9318.504,13.73485
9345.503,13.72008
9372.502,13.64859
9399.501,13.59594
9426.5,13.50265
9453.499,13.42033
9480.498,13.34005
9507.497,13.2802
9534.496,13.24217
9561.495,13.14087
9588.494,13.08219
9615.493,13.11893
9642.492,13.20876
9669.491,13.35223
9696.49,13.45489
9723.489,13.58184
9750.488,13.69197
9777.487,13.73347
9804.486,13.75833
9831.485,13.7766
9858.484,13.88589
9885.482,14.04074
9912.481,14.15675
9939.48,14.26906
9966.479,14.3682
9993.479,14.44407
10020.48,14.47494
10047.48,14.53024
10074.48,14.60621
10101.47,14.64186
10128.47,14.65688
10155.47,14.64646
10182.47,14.66436
10209.47,14.68091
10236.47,14.69025
10263.47,14.70069
10290.47,14.64777
10317.47,14.61472
10344.47,14.58378
10371.46,14.59514
10398.46,14.52458
10425.46,14.55802
10452.46,14.43372
10479.46,14.38398
10506.46,14.29018
10533.46,14.14325
10560.46,13.90141
10587.46,13.6386
10614.46,13.27954
10641.45,12.88635
10668.45,12.46178
10695.45,12.13646
10722.45,11.98159
10749.45,12.02308
10776.45,12.22319
10803.45,12.47607
10830.45,12.76806
10857.45,13.06121
10884.45,13.42877
10911.44,13.62471
10938.44,13.90268
10965.44,14.15699
10992.44,14.31212
11019.44,14.4293
11046.44,14.52167
11073.44,14.70984
11100.44,14.76049
11127.44,14.76
11154.43,14.79969
11181.43,14.89312
11208.43,15.01537
11235.43,15.1077
11262.43,15.22383
11289.43,15.3159
11316.43,15.27766
11343.43,15.43363
11370.43,15.35653
11397.43,15.49423
11424.42,15.53814
11451.42,15.65197
11478.42,15.68415
11505.42,15.66779
11532.42,15.71112
11559.42,15.81565
11586.42,15.77801
11613.42,15.80241
11640.42,15.74974
11667.42,15.76275
11694.41,15.92403
11721.41,15.85824
11748.41,15.85175
11775.41,15.86989
11802.41,15.70706
11829.41,15.79732
11856.41,15.64554
11883.41,15.57458
11910.41,15.54423
11937.41,15.6455
11964.4,15.56174
11991.4,15.46952
11999.12,15.61143