File: Data/NIR/S0024LDPE_1.csv
Wavenumber,Intensity
3999.706,3.228478
4026.705,3.24648
4053.704,3.263449
4080.703,3.272527
4107.702,3.27961
4134.701,3.28566
4161.7,3.301736
4188.699,3.312819
4215.698,3.351266
4242.697,3.373069
4269.696,3.39155
4296.694,3.408815
4323.693,3.389371
4350.692,3.416303
4377.691,3.420153
4404.69,3.436877
4431.689,3.516643
4458.688,3.68368
4485.688,3.858138
4512.687,4.062344
4539.686,4.275783
4566.685,4.509838
4593.683,4.671791
4620.682,4.771808
4647.681,4.83404
4674.68,4.80408
4701.679,4.91435
4728.678,4.846478
4755.677,4.791181
4782.676,4.671378
4809.675,4.598019
4836.674,4.465347
4863.673,4.307641
4890.672,4.334094
4917.671,4.360765
4944.67,4.333484
4971.669,4.189043
4998.668,4.311137
5025.667,4.384968
5052.666,4.399578
5079.665,4.37515
5106.664,4.359262
5133.663,4.397815
5160.662,4.351848
5187.661,4.34651
5214.66,4.348625
5241.659,4.372777
5268.658,4.392863
5295.657,4.378226
5322.656,4.409842
5349.655,4.332682
5376.654,4.214422
5403.652,4.089797
5430.651,3.961072
5457.65,3.917156
5484.649,3.852705
5511.648,3.850407
5538.647,3.853671
5565.646,3.865609
5592.646,3.936089
5619.645,3.83613
5646.644,3.712248
5673.643,3.648991
5700.642,3.746052
5727.641,3.73516
5754.639,3.641579
5781.638,3.623751
5808.637,3.643915
5835.636,3.706573
5862.635,3.965659
5889.634,4.69329
5916.633,5.304555
5943.632,6.363371
5970.631,7.182406
5997.63,7.866827
6024.629,8.406559
6051.628,8.793458
6078.627,9.046178
6105.626,9.170936
6132.625,9.380523
6159.624,9.615184
6186.623,9.824354
6213.622,9.949686
6240.621,10.0327
6267.62,10.0765
6294.619,10.10542
6321.618,10.11193
6348.617,10.04772
6375.616,9.882983
6402.615,9.773781
6429.614,9.56543
6456.613,9.254214
6483.612,8.411419
6510.61,8.724007
6537.609,8.885638
6564.608,8.98361
6591.607,9.063107
6618.606,9.047716
6645.605,8.96777
6672.604,8.833376
6699.604,8.637207
6726.603,8.396149
6753.602,8.166821
6780.601,7.876487
6807.6,7.458916
6834.599,7.025574
6861.598,6.798539
6888.597,6.506915
6915.596,6.246603
6942.594,5.867831
6969.593,5.753039
6996.592,5.677894
7023.591,5.512671
7050.59,5.429073
7077.589,5.489819
7104.588,5.912014
7131.587,6.21553
7158.586,5.572928
7185.585,5.287561
7212.584,6.345748
7239.583,7.293756
7266.582,8.141518
7293.581,8.985255
7320.58,9.719317
7347.579,10.16424
7374.578,10.5975
7401.577,10.89273
7428.576,11.03148
7455.575,11.10645
7482.574,11.14099
7509.573,11.12688
7536.572,11.09304
7563.571,11.04447
7590.57,10.97113
7617.569,10.87345
7644.568,10.73765
7671.566,10.62515
7698.565,10.55568
7725.564,10.45428
7752.563,10.36978
7779.563,10.26993
7806.562,10.17595
7833.561,10.05465
7860.56,9.903543
7887.559,9.7121
7914.558,9.479435
7941.557,9.213173
7968.556,8.900565
7995.555,8.530838
8022.554,8.110834
8049.553,7.642884
8076.552,7.131194
8103.551,6.567589
8130.55,5.935436
8157.548,5.304023
8184.547,4.730316
8211.546,4.419761
8238.545,4.403841
8265.544,4.493847
8292.543,4.775537
8319.542,5.138587
8346.541,5.562528
8373.54,6.012511
8400.539,6.337796
8427.538,6.488514
8454.537,7.03698
8481.536,7.540978
8508.535,7.941599
8535.534,8.147792
8562.533,7.833371
8589.532,8.412925
8616.531,9.26874
8643.53,9.934986
8670.529,10.31185
8697.528,10.69677
8724.527,11.153
8751.525,11.58084
8778.524,11.90512
8805.523,12.11508
8832.522,12.22942
8859.521,12.28959
8886.521,12.31839
8913.52,12.31925
8940.519,12.31426
8967.518,12.31389
8994.517,12.33337
9021.516,12.35699
9048.515,12.40111
9075.514,12.38245
9102.513,12.39725
9129.512,12.38036
9156.511,12.37709
9183.51,12.31335
9210.509,12.27694
9237.508,12.22738
9264.507,12.21236
9291.506,12.18057
9318.504,12.16763
9345.503,12.15367
9372.502,12.09961
9399.501,12.01474
9426.5,11.94299
9453.499,11.8623
9480.498,11.78236
9507.497,11.71942
9534.496,11.67279
9561.495,11.57502
9588.494,11.53211
9615.493,11.55673
9642.492,11.65978
9669.491,11.7906
9696.49,11.91574
9723.489,12.02916
9750.488,12.17405
9777.487,12.19065
9804.486,12.23554
9831.485,12.23541
9858.484,12.35574
9885.482,12.50871
9912.481,12.6084
9939.48,12.74174
9966.479,12.8507
9993.479,12.92927
10020.48,12.9568
10047.48,13.00614
10074.48,13.0793
10101.47,13.15219
10128.47,13.16199
10155.47,13.13454
10182.47,13.19515
10209.47,13.1986
10236.47,13.17926
10263.47,13.18358
10290.47,13.1587
10317.47,13.12464
10344.47,13.10936
10371.46,13.08368
10398.46,13.06713
10425.46,13.03926
10452.46,12.96193
10479.46,12.91321
10506.46,12.77947
10533.46,12.62946
10560.46,12.42657
10587.46,12.14223
10614.46,11.75914
10641.45,11.3868
10668.45,10.9601
10695.45,10.58976
10722.45,10.54734
10749.45,10.56664
10776.45,10.74438
10803.45,10.97744
10830.45,11.32057
10857.45,11.55824
10884.45,11.93077
10911.44,12.09718
10938.44,12.42729
10965.44,12.67492
10992.44,12.78434
11019.44,13.00423
11046.44,13.08863
11073.44,13.21843
11100.44,13.24278
11127.44,13.3413
11154.43,13.44125
11181.43,13.40417
11208.43,13.6201
11235.43,13.68419
11262.43,13.79291
11289.43,13.89431
11316.43,13.78826
11343.43,13.94568
11370.43,13.93798
11397.43,14.05822
11424.42,14.08913
11451.42,14.20875
11478.42,14.23583
11505.42,14.20146
11532.42,14.26706
11559.42,14.44504
11586.42,14.42696
11613.42,14.35533
11640.42,14.41007
11667.42,14.21159
11694.41,14.45817
11721.41,14.35692
11748.41,14.34915
11775.41,14.37874
11802.41,14.28261
11829.41,14.33091
11856.41,14.35086
11883.41,14.27442
11910.41,14.3407
11937.41,14.35373
11964.4,14.25199
11991.4,14.28609
11999.12,14.35818