File: Data/NIR/S0040HDPE_1.csv
Wavenumber,Intensity
3999.706,3.998509
4026.705,3.993119
4053.704,4.00614
4080.703,4.01436
4107.702,4.018348
4134.701,4.026439
4161.7,4.038956
4188.699,4.056244
4215.698,4.106903
4242.697,4.135275
4269.696,4.165298
4296.694,4.193064
4323.693,4.161252
4350.692,4.19062
4377.691,4.24316
4404.69,4.41235
4431.689,4.640873
4458.688,4.864673
4485.688,5.079764
4512.687,5.365177
4539.686,5.636671
4566.685,5.953478
4593.683,6.139713
4620.682,6.246193
4647.681,6.312203
4674.68,6.236485
4701.679,6.408144
4728.678,6.289024
4755.677,6.231767
4782.676,6.053675
4809.675,5.958861
4836.674,5.795153
4863.673,5.593352
4890.672,5.647054
4917.671,5.701059
4944.67,5.673527
4971.669,5.498584
4998.668,5.691801
5025.667,5.801552
5052.666,5.824569
5079.665,5.787201
5106.664,5.769347
5133.663,5.833318
5160.662,5.76062
5187.661,5.759727
5214.66,5.779664
5241.659,5.821885
5268.658,5.864239
5295.657,5.848896
5322.656,5.932357
5349.655,5.793812
5376.654,5.611625
5403.652,5.483515
5430.651,5.290617
5457.65,5.240273
5484.649,5.137889
5511.648,5.165292
5538.647,5.171482
5565.646,5.193399
5592.646,5.362249
5619.645,5.178008
5646.644,4.920298
5673.643,4.68682
5700.642,5.035803
5727.641,4.901811
5754.639,4.601658
5781.638,4.460044
5808.637,4.633897
5835.636,4.911327
5862.635,5.776571
5889.634,7.104956
5916.633,7.848811
5943.632,8.456608
5970.631,9.288248
5997.63,10.17056
6024.629,10.85813
6051.628,11.34567
6078.627,11.64699
6105.626,11.53983
6132.625,11.95435
6159.624,12.2398
6186.623,12.43638
6213.622,12.54882
6240.621,12.64042
6267.62,12.68165
6294.619,12.71531
6321.618,12.7244
6348.617,12.61653
6375.616,12.37624
6402.615,12.24029
6429.614,11.96743
6456.613,11.55832
6483.612,10.39131
6510.61,10.99797
6537.609,11.28257
6564.608,11.47314
6591.607,11.6301
6618.606,11.64405
6645.605,11.57268
6672.604,11.42397
6699.604,11.21071
6726.603,10.90652
6753.602,10.65532
6780.601,10.31444
6807.6,9.740875
6834.599,9.153242
6861.598,8.912085
6888.597,8.592594
6915.596,8.317134
6942.594,7.818895
6969.593,7.719261
6996.592,7.633413
7023.591,7.377357
7050.59,7.352024
7077.589,7.552098
7104.588,8.069101
7131.587,8.503649
7158.586,7.589024
7185.585,7.275824
7212.584,8.887817
7239.583,10.17236
7266.582,11.37169
7293.581,12.4397
7320.58,13.37447
7347.579,13.98061
7374.578,14.26784
7401.577,14.43192
7428.576,14.54039
7455.575,14.62363
7482.574,14.66722
7509.573,14.64353
7536.572,14.62225
7563.571,14.55296
7590.57,14.46999
7617.569,14.35137
7644.568,14.17561
7671.566,14.04063
7698.565,13.97577
7725.564,13.879
7752.563,13.78412
7779.563,13.68332
7806.562,13.60027
7833.561,13.48237
7860.56,13.30229
7887.559,13.07452
7914.558,12.79275
7941.557,12.46712
7968.556,12.08117
7995.555,11.63639
8022.554,11.10651
8049.553,10.51693
8076.552,9.833402
8103.551,9.120711
8130.55,8.295304
8157.548,7.452703
8184.547,6.625979
8211.546,6.187054
8238.545,6.208626
8265.544,6.378292
8292.543,6.863125
8319.542,7.471596
8346.541,8.150409
8373.54,8.991861
8400.539,9.54298
8427.538,9.490677
8454.537,10.22337
8481.536,10.91927
8508.535,11.47418
8535.534,11.6819
8562.533,10.933
8589.532,11.91932
8616.531,13.31092
8643.53,14.24026
8670.529,14.84301
8697.528,15.36442
8724.527,15.89814
8751.525,16.44141
8778.524,16.83066
8805.523,17.08936
8832.522,17.18794
8859.521,17.27233
8886.521,17.31614
8913.52,17.28909
8940.519,17.26937
8967.518,17.29235
8994.517,17.33999
9021.516,17.40641
9048.515,17.46966
9075.514,17.49751
9102.513,17.55454
9129.512,17.525
9156.511,17.53107
9183.51,17.4694
9210.509,17.44585
9237.508,17.40179
9264.507,17.38174
9291.506,17.36208
9318.504,17.37038
9345.503,17.38417
9372.502,17.31436
9399.501,17.21447
9426.5,17.13004
9453.499,17.00699
9480.498,16.91228
9507.497,16.82237
9534.496,16.77133
9561.495,16.66046
9588.494,16.56971
9615.493,16.6375
9642.492,16.78953
9669.491,17.02922
9696.49,17.24012
9723.489,17.47017
9750.488,17.65429
9777.487,17.76426
9804.486,17.7591
9831.485,17.78392
9858.484,17.98814
9885.482,18.2174
9912.481,18.37552
9939.48,18.55563
9966.479,18.6878
9993.479,18.80203
10020.48,18.85627
10047.48,18.9806
10074.48,19.1026
10101.47,19.14259
10128.47,19.19845
10155.47,19.19872
10182.47,19.26402
10209.47,19.26386
10236.47,19.24285
10263.47,19.24156
10290.47,19.24072
10317.47,19.21313
10344.47,19.15654
10371.46,19.19367
10398.46,19.13404
10425.46,19.15155
10452.46,19.03246
10479.46,18.9508
10506.46,18.80072
10533.46,18.61543
10560.46,18.22368
10587.46,17.82429
10614.46,17.28703
10641.45,16.68926
10668.45,16.01524
10695.45,15.51451
10722.45,15.36909
10749.45,15.50517
10776.45,15.80521
10803.45,16.21612
10830.45,16.74012
10857.45,17.2278
10884.45,17.79801
10911.44,18.21927
10938.44,18.69307
10965.44,19.01
10992.44,19.30665
11019.44,19.51269
11046.44,19.63304
11073.44,19.79918
11100.44,19.82372
11127.44,19.83531
11154.43,19.99145
11181.43,20.08059
11208.43,20.32303
11235.43,20.48169
11262.43,20.58086
11289.43,20.67676
11316.43,20.68796
11343.43,20.85855
11370.43,20.83832
11397.43,20.90162
11424.42,21.02526
11451.42,21.14624
11478.42,21.16567
11505.42,21.23731
11532.42,21.34827
11559.42,21.37085
11586.42,21.59332
11613.42,21.39566
11640.42,21.54012
11667.42,21.46743
11694.41,21.51458
11721.41,21.46569
11748.41,21.59199
11775.41,21.53176
11802.41,21.52823
11829.41,21.49624
11856.41,21.51649
11883.41,21.67052
11910.41,21.73868
11937.41,21.86689
11964.4,22.04616
11991.4,21.87981
11999.12,22.04872