File: Data/NIR/S0048HDPE_5.csv
Wavenumber,Intensity
3999.706,3.247462
4026.705,3.216611
4053.704,3.232531
4080.703,3.233577
4107.702,3.22134
4134.701,3.23105
4161.7,3.239306
4188.699,3.258697
4215.698,3.302998
4242.697,3.320685
4269.696,3.360312
4296.694,3.410556
4323.693,3.331057
4350.692,3.388361
4377.691,3.491365
4404.69,3.703377
4431.689,3.951229
4458.688,4.191875
4485.688,4.423443
4512.687,4.702964
4539.686,4.974984
4566.685,5.288629
4593.683,5.470173
4620.682,5.571465
4647.681,5.631184
4674.68,5.531291
4701.679,5.72397
4728.678,5.595341
4755.677,5.519288
4782.676,5.312964
4809.675,5.20249
4836.674,5.020297
4863.673,4.81224
4890.672,4.857232
4917.671,4.898182
4944.67,4.872098
4971.669,4.685172
4998.668,4.873016
5025.667,4.970957
5052.666,4.985281
5079.665,4.941886
5106.664,4.91467
5133.663,4.968645
5160.662,4.879968
5187.661,4.868093
5214.66,4.882462
5241.659,4.923767
5268.658,4.954147
5295.657,4.925995
5322.656,5.005465
5349.655,4.860305
5376.654,4.682827
5403.652,4.552804
5430.651,4.355932
5457.65,4.315424
5484.649,4.217418
5511.648,4.242134
5538.647,4.24138
5565.646,4.252892
5592.646,4.408388
5619.645,4.235875
5646.644,4.010122
5673.643,3.808286
5700.642,4.081258
5727.641,3.94918
5754.639,3.72723
5781.638,3.615832
5808.637,3.748973
5835.636,3.96835
5862.635,4.720813
5889.634,5.943505
5916.633,6.655055
5943.632,7.314898
5970.631,8.183186
5997.63,9.116971
6024.629,9.850563
6051.628,10.3692
6078.627,10.69597
6105.626,10.67426
6132.625,11.02166
6159.624,11.26956
6186.623,11.46012
6213.622,11.56698
6240.621,11.65344
6267.62,11.67667
6294.619,11.70689
6321.618,11.70001
6348.617,11.55588
6375.616,11.28057
6402.615,11.11899
6429.614,10.80562
6456.613,10.34014
6483.612,9.087833
6510.61,9.723966
6537.609,10.03631
6564.608,10.21839
6591.607,10.3734
6618.606,10.37343
6645.605,10.28411
6672.604,10.1079
6699.604,9.863661
6726.603,9.539113
6753.602,9.270139
6780.601,8.902505
6807.6,8.299351
6834.599,7.700051
6861.598,7.444655
6888.597,7.122807
6915.596,6.848989
6942.594,6.337012
6969.593,6.255725
6996.592,6.164376
7023.591,5.920899
7050.59,5.892487
7077.589,6.095497
7104.588,6.574364
7131.587,6.980675
7158.586,6.082089
7185.585,5.831806
7212.584,7.342248
7239.583,8.592816
7266.582,9.770303
7293.581,10.84315
7320.58,11.78543
7347.579,12.38024
7374.578,12.68105
7401.577,12.84584
7428.576,12.94207
7455.575,13.03208
7482.574,13.0621
7509.573,13.02792
7536.572,12.97825
7563.571,12.8832
7590.57,12.78754
7617.569,12.64256
7644.568,12.45061
7671.566,12.30526
7698.565,12.2074
7725.564,12.09752
7752.563,11.99254
7779.563,11.86353
7806.562,11.7662
7833.561,11.63513
7860.56,11.44874
7887.559,11.20093
7914.558,10.90816
7941.557,10.56667
7968.556,10.16742
7995.555,9.718086
8022.554,9.202465
8049.553,8.612635
8076.552,7.973374
8103.551,7.283577
8130.55,6.527688
8157.548,5.776496
8184.547,5.064153
8211.546,4.706074
8238.545,4.720981
8265.544,4.838758
8292.543,5.238331
8319.542,5.756165
8346.541,6.34597
8373.54,7.107311
8400.539,7.606241
8427.538,7.524768
8454.537,8.206141
8481.536,8.861539
8508.535,9.374329
8535.534,9.565399
8562.533,8.83285
8589.532,9.767506
8616.531,11.12085
8643.53,12.02661
8670.529,12.59698
8697.528,13.10122
8724.527,13.61608
8751.525,14.13992
8778.524,14.52891
8805.523,14.74391
8832.522,14.8673
8859.521,14.90661
8886.521,14.9354
8913.52,14.89882
8940.519,14.86635
8967.518,14.85604
8994.517,14.90134
9021.516,14.947
9048.515,15.00153
9075.514,15.01768
9102.513,15.04588
9129.512,15.03265
9156.511,14.98305
9183.51,14.95237
9210.509,14.89347
9237.508,14.83796
9264.507,14.7677
9291.506,14.72841
9318.504,14.75198
9345.503,14.73562
9372.502,14.65865
9399.501,14.56265
9426.5,14.47211
9453.499,14.30563
9480.498,14.19352
9507.497,14.12072
9534.496,14.03943
9561.495,13.92499
9588.494,13.82657
9615.493,13.88244
9642.492,14.03148
9669.491,14.26744
9696.49,14.45431
9723.489,14.63801
9750.488,14.81254
9777.487,14.90585
9804.486,14.8979
9831.485,14.92918
9858.484,15.11956
9885.482,15.29557
9912.481,15.46793
9939.48,15.63611
9966.479,15.76274
9993.479,15.84888
10020.48,15.93637
10047.48,16.02026
10074.48,16.08628
10101.47,16.14156
10128.47,16.18979
10155.47,16.19357
10182.47,16.22404
10209.47,16.24133
10236.47,16.21636
10263.47,16.22326
10290.47,16.18469
10317.47,16.117
10344.47,16.11137
10371.46,16.09216
10398.46,16.0326
10425.46,16.02169
10452.46,15.86721
10479.46,15.82597
10506.46,15.62994
10533.46,15.37924
10560.46,15.07589
10587.46,14.70351
10614.46,14.19553
10641.45,13.55346
10668.45,12.9606
10695.45,12.46282
10722.45,12.32934
10749.45,12.47089
10776.45,12.71881
10803.45,13.2064
10830.45,13.63366
10857.45,14.09761
10884.45,14.60281
10911.44,14.97156
10938.44,15.39549
10965.44,15.74493
10992.44,15.98376
11019.44,16.13168
11046.44,16.26207
11073.44,16.35701
11100.44,16.3951
11127.44,16.41045
11154.43,16.55941
11181.43,16.6016
11208.43,16.89231
11235.43,16.9564
11262.43,17.14227
11289.43,17.21678
11316.43,17.22092
11343.43,17.29226
11370.43,17.39791
11397.43,17.40482
11424.42,17.50212
11451.42,17.48545
11478.42,17.49331
11505.42,17.52629
11532.42,17.80019
11559.42,17.78206
11586.42,17.70018
11613.42,17.8842
11640.42,17.76019
11667.42,17.80967
11694.41,17.7593
11721.41,17.7043
11748.41,17.71537
11775.41,17.65144
11802.41,17.67758
11829.41,17.76427
11856.41,17.56395
11883.41,17.76082
11910.41,17.44663
11937.41,17.45407
11964.4,17.34355
11991.4,17.29316
11999.12,17.22899