File: Data/NIR/S0040HDPE_3.csv
Wavenumber,Intensity
3999.706,4.367303
4026.705,4.359378
4053.704,4.371462
4080.703,4.381924
4107.702,4.388238
4134.701,4.399518
4161.7,4.413828
4188.699,4.43548
4215.698,4.487276
4242.697,4.514946
4269.696,4.544981
4296.694,4.570786
4323.693,4.53361
4350.692,4.560451
4377.691,4.621192
4404.69,4.856052
4431.689,5.15688
4458.688,5.430804
4485.688,5.668571
4512.687,5.961654
4539.686,6.234865
4566.685,6.54665
4593.683,6.726919
4620.682,6.828031
4647.681,6.891213
4674.68,6.820426
4701.679,6.983027
4728.678,6.874298
4755.677,6.829377
4782.676,6.653716
4809.675,6.565966
4836.674,6.399976
4863.673,6.195829
4890.672,6.254097
4917.671,6.303858
4944.67,6.279339
4971.669,6.092786
4998.668,6.293983
5025.667,6.40429
5052.666,6.424978
5079.665,6.383531
5106.664,6.366447
5133.663,6.435839
5160.662,6.359365
5187.661,6.359778
5214.66,6.372539
5241.659,6.428234
5268.658,6.471027
5295.657,6.439641
5322.656,6.523249
5349.655,6.392486
5376.654,6.216693
5403.652,6.052229
5430.651,5.840585
5457.65,5.779841
5484.649,5.655117
5511.648,5.683399
5538.647,5.685192
5565.646,5.713739
5592.646,5.901954
5619.645,5.691852
5646.644,5.383739
5673.643,5.08196
5700.642,5.516929
5727.641,5.355669
5754.639,4.968332
5781.638,4.78938
5808.637,5.002749
5835.636,5.360898
5862.635,6.344688
5889.634,7.661148
5916.633,8.36378
5943.632,8.92713
5970.631,9.696033
5997.63,10.51045
6024.629,11.14747
6051.628,11.60771
6078.627,11.89361
6105.626,11.79781
6132.625,12.18033
6159.624,12.44899
6186.623,12.6359
6213.622,12.7475
6240.621,12.84763
6267.62,12.88204
6294.619,12.91356
6321.618,12.92912
6348.617,12.82938
6375.616,12.6151
6402.615,12.48228
6429.614,12.23054
6456.613,11.85073
6483.612,10.76987
6510.61,11.33286
6537.609,11.60758
6564.608,11.7822
6591.607,11.9371
6618.606,11.9527
6645.605,11.89005
6672.604,11.75827
6699.604,11.54928
6726.603,11.27088
6753.602,11.03984
6780.601,10.7237
6807.6,10.19104
6834.599,9.644588
6861.598,9.414228
6888.597,9.111999
6915.596,8.855341
6942.594,8.368387
6969.593,8.283447
6996.592,8.194084
7023.591,7.957065
7050.59,7.924605
7077.589,8.113914
7104.588,8.628428
7131.587,9.036349
7158.586,8.173827
7185.585,7.852828
7212.584,9.406864
7239.583,10.64978
7266.582,11.76565
7293.581,12.79108
7320.58,13.67521
7347.579,14.27366
7374.578,14.54726
7401.577,14.70271
7428.576,14.8053
7455.575,14.89614
7482.574,14.93561
7509.573,14.90912
7536.572,14.88673
7563.571,14.8251
7590.57,14.74939
7617.569,14.63797
7644.568,14.47731
7671.566,14.34536
7698.565,14.27968
7725.564,14.18698
7752.563,14.1151
7779.563,14.00067
7806.562,13.93743
7833.561,13.82119
7860.56,13.66579
7887.559,13.43796
7914.558,13.18454
7941.557,12.87282
7968.556,12.49933
7995.555,12.07812
8022.554,11.57566
8049.553,11.01437
8076.552,10.38008
8103.551,9.685689
8130.55,8.886807
8157.548,8.049272
8184.547,7.223276
8211.546,6.741703
8238.545,6.756966
8265.544,6.948569
8292.543,7.454998
8319.542,8.069471
8346.541,8.740601
8373.54,9.583282
8400.539,10.10505
8427.538,10.06144
8454.537,10.77507
8481.536,11.4471
8508.535,11.97499
8535.534,12.16763
8562.533,11.46947
8589.532,12.39712
8616.531,13.74887
8643.53,14.6527
8670.529,15.22602
8697.528,15.73042
8724.527,16.25252
8751.525,16.78599
8778.524,17.17052
8805.523,17.40714
8832.522,17.52605
8859.521,17.59708
8886.521,17.63956
8913.52,17.62461
8940.519,17.58382
8967.518,17.62197
8994.517,17.6833
9021.516,17.74154
9048.515,17.82699
9075.514,17.83965
9102.513,17.90142
9129.512,17.88544
9156.511,17.873
9183.51,17.84129
9210.509,17.78572
9237.508,17.7595
9264.507,17.73814
9291.506,17.70192
9318.504,17.71879
9345.503,17.74728
9372.502,17.66263
9399.501,17.5875
9426.5,17.50031
9453.499,17.37055
9480.498,17.293
9507.497,17.20919
9534.496,17.15576
9561.495,17.0399
9588.494,16.97497
9615.493,17.02228
9642.492,17.20198
9669.491,17.4436
9696.49,17.61845
9723.489,17.83809
9750.488,18.03903
9777.487,18.13111
9804.486,18.124
9831.485,18.18025
9858.484,18.3757
9885.482,18.59076
9912.481,18.75152
9939.48,18.93042
9966.479,19.06707
9993.479,19.18492
10020.48,19.24948
10047.48,19.3461
10074.48,19.45416
10101.47,19.49696
10128.47,19.58295
10155.47,19.58311
10182.47,19.62833
10209.47,19.64031
10236.47,19.63695
10263.47,19.62272
10290.47,19.62545
10317.47,19.59004
10344.47,19.58824
10371.46,19.60976
10398.46,19.53802
10425.46,19.54688
10452.46,19.42302
10479.46,19.30917
10506.46,19.19213
10533.46,19.011
10560.46,18.63917
10587.46,18.26701
10614.46,17.74116
10641.45,17.13965
10668.45,16.51624
10695.45,16.02911
10722.45,15.9034
10749.45,15.99757
10776.45,16.32651
10803.45,16.73055
10830.45,17.20844
10857.45,17.71885
10884.45,18.26956
10911.44,18.67921
10938.44,19.14976
10965.44,19.48267
10992.44,19.76694
11019.44,19.87139
11046.44,20.05261
11073.44,20.24379
11100.44,20.22957
11127.44,20.29821
11154.43,20.33341
11181.43,20.42851
11208.43,20.6673
11235.43,20.91119
11262.43,21.00192
11289.43,21.1017
11316.43,21.15386
11343.43,21.26648
11370.43,21.20901
11397.43,21.39946
11424.42,21.31299
11451.42,21.48217
11478.42,21.62718
11505.42,21.63237
11532.42,21.7494
11559.42,21.80367
11586.42,21.9259
11613.42,21.81866
11640.42,21.82664
11667.42,21.81484
11694.41,21.97944
11721.41,21.98604
11748.41,21.9514
11775.41,22.04294
11802.41,21.80402
11829.41,21.9002
11856.41,21.99766
11883.41,22.14298
11910.41,22.27753
11937.41,22.20506
11964.4,22.5246
11991.4,22.43088
11999.12,22.54968