File: Data/NIR/S0040HDPE_2.csv
Wavenumber,Intensity
3999.706,3.733309
4026.705,3.718194
4053.704,3.733454
4080.703,3.737801
4107.702,3.741562
4134.701,3.746686
4161.7,3.760041
4188.699,3.775413
4215.698,3.822235
4242.697,3.848624
4269.696,3.870857
4296.694,3.900086
4323.693,3.865691
4350.692,3.895107
4377.691,3.950206
4404.69,4.187719
4431.689,4.530527
4458.688,4.858728
4485.688,5.147454
4512.687,5.506765
4539.686,5.829378
4566.685,6.184258
4593.683,6.384868
4620.682,6.502029
4647.681,6.572114
4674.68,6.486563
4701.679,6.665496
4728.678,6.531893
4755.677,6.46625
4782.676,6.257472
4809.675,6.150564
4836.674,5.951421
4863.673,5.707224
4890.672,5.77172
4917.671,5.830451
4944.67,5.798066
4971.669,5.575311
4998.668,5.81325
5025.667,5.945681
5052.666,5.966081
5079.665,5.914952
5106.664,5.889071
5133.663,5.965082
5160.662,5.874768
5187.661,5.873065
5214.66,5.889891
5241.659,5.949158
5268.658,5.991097
5295.657,5.964391
5322.656,6.059187
5349.655,5.901214
5376.654,5.677235
5403.652,5.506506
5430.651,5.238612
5457.65,5.183295
5484.649,5.036816
5511.648,5.07062
5538.647,5.076876
5565.646,5.103896
5592.646,5.323583
5619.645,5.076918
5646.644,4.727467
5673.643,4.399416
5700.642,4.8754
5727.641,4.686125
5754.639,4.279997
5781.638,4.114791
5808.637,4.316038
5835.636,4.70056
5862.635,5.817004
5889.634,7.329812
5916.633,8.114473
5943.632,8.735139
5970.631,9.573598
5997.63,10.44025
6024.629,11.11285
6051.628,11.59759
6078.627,11.89193
6105.626,11.78865
6132.625,12.19117
6159.624,12.46475
6186.623,12.65529
6213.622,12.77116
6240.621,12.86155
6267.62,12.90003
6294.619,12.93908
6321.618,12.95027
6348.617,12.84346
6375.616,12.6144
6402.615,12.47556
6429.614,12.21536
6456.613,11.81646
6483.612,10.66994
6510.61,11.26287
6537.609,11.54973
6564.608,11.73319
6591.607,11.89345
6618.606,11.90422
6645.605,11.83656
6672.604,11.69612
6699.604,11.47682
6726.603,11.18063
6753.602,10.93068
6780.601,10.59351
6807.6,10.02192
6834.599,9.435032
6861.598,9.174974
6888.597,8.847315
6915.596,8.565465
6942.594,8.026702
6969.593,7.931625
6996.592,7.827278
7023.591,7.560312
7050.59,7.520513
7077.589,7.743656
7104.588,8.30454
7131.587,8.753502
7158.586,7.797288
7185.585,7.436632
7212.584,9.14975
7239.583,10.4778
7266.582,11.65982
7293.581,12.72402
7320.58,13.66253
7347.579,14.25038
7374.578,14.54486
7401.577,14.7008
7428.576,14.80745
7455.575,14.89328
7482.574,14.93743
7509.573,14.90965
7536.572,14.88867
7563.571,14.82204
7590.57,14.7369
7617.569,14.62998
7644.568,14.46143
7671.566,14.32566
7698.565,14.26206
7725.564,14.15633
7752.563,14.0621
7779.563,13.96138
7806.562,13.8893
7833.561,13.76432
7860.56,13.60024
7887.559,13.36565
7914.558,13.09284
7941.557,12.77748
7968.556,12.37805
7995.555,11.93017
8022.554,11.39907
8049.553,10.79155
8076.552,10.10946
8103.551,9.371429
8130.55,8.486518
8157.548,7.56689
8184.547,6.651196
8211.546,6.133217
8238.545,6.157542
8265.544,6.350036
8292.543,6.904231
8319.542,7.59504
8346.541,8.301962
8373.54,9.230927
8400.539,9.795089
8427.538,9.735266
8454.537,10.50949
8481.536,11.22856
8508.535,11.78368
8535.534,11.98527
8562.533,11.23674
8589.532,12.21779
8616.531,13.6348
8643.53,14.58113
8670.529,15.1862
8697.528,15.7127
8724.527,16.23135
8751.525,16.79551
8778.524,17.19776
8805.523,17.43447
8832.522,17.55975
8859.521,17.63004
8886.521,17.67108
8913.52,17.66721
8940.519,17.61674
8967.518,17.64943
8994.517,17.69859
9021.516,17.78817
9048.515,17.86225
9075.514,17.87116
9102.513,17.92802
9129.512,17.90839
9156.511,17.91775
9183.51,17.85157
9210.509,17.83097
9237.508,17.78561
9264.507,17.76759
9291.506,17.74724
9318.504,17.7516
9345.503,17.7768
9372.502,17.69485
9399.501,17.62195
9426.5,17.5286
9453.499,17.38759
9480.498,17.28393
9507.497,17.23797
9534.496,17.15936
9561.495,17.06282
9588.494,16.97
9615.493,17.03973
9642.492,17.21824
9669.491,17.43112
9696.49,17.66566
9723.489,17.86859
9750.488,18.08813
9777.487,18.17841
9804.486,18.20218
9831.485,18.21499
9858.484,18.40771
9885.482,18.66845
9912.481,18.81442
9939.48,19.00356
9966.479,19.14076
9993.479,19.24287
10020.48,19.3227
10047.48,19.42455
10074.48,19.54414
10101.47,19.58315
10128.47,19.65775
10155.47,19.66281
10182.47,19.72161
10209.47,19.74833
10236.47,19.70601
10263.47,19.71389
10290.47,19.71165
10317.47,19.66786
10344.47,19.66183
10371.46,19.66734
10398.46,19.59145
10425.46,19.65096
10452.46,19.5317
10479.46,19.4268
10506.46,19.28387
10533.46,19.05713
10560.46,18.71342
10587.46,18.3232
10614.46,17.74279
10641.45,17.1518
10668.45,16.46405
10695.45,15.97719
10722.45,15.78904
10749.45,15.92564
10776.45,16.25423
10803.45,16.69573
10830.45,17.22137
10857.45,17.70997
10884.45,18.26859
10911.44,18.66141
10938.44,19.13806
10965.44,19.52986
10992.44,19.82697
11019.44,19.9959
11046.44,20.17255
11073.44,20.31894
11100.44,20.3183
11127.44,20.4067
11154.43,20.53236
11181.43,20.61766
11208.43,20.88931
11235.43,20.99376
11262.43,21.20951
11289.43,21.24058
11316.43,21.28575
11343.43,21.32756
11370.43,21.43781
11397.43,21.56772
11424.42,21.54597
11451.42,21.71221
11478.42,21.79966
11505.42,21.75587
11532.42,21.90537
11559.42,21.98841
11586.42,21.98235
11613.42,22.0224
11640.42,22.15539
11667.42,22.06536
11694.41,22.21069
11721.41,22.16586
11748.41,22.12325
11775.41,22.14936
11802.41,22.05491
11829.41,22.03934
11856.41,22.19754
11883.41,22.38298
11910.41,22.38196
11937.41,22.53135
11964.4,22.52751
11991.4,22.6489
11999.12,22.57117