File: Data/NIR/S0040HDPE_5.csv
Wavenumber,Intensity
3999.706,3.809461
4026.705,3.794626
4053.704,3.809106
4080.703,3.819865
4107.702,3.815154
4134.701,3.832387
4161.7,3.837217
4188.699,3.860293
4215.698,3.908345
4242.697,3.932535
4269.696,3.965722
4296.694,3.998971
4323.693,3.94593
4350.692,3.989875
4377.691,4.053061
4404.69,4.261011
4431.689,4.568756
4458.688,4.867871
4485.688,5.137614
4512.687,5.477185
4539.686,5.782954
4566.685,6.124237
4593.683,6.324882
4620.682,6.437051
4647.681,6.508636
4674.68,6.428999
4701.679,6.608565
4728.678,6.479481
4755.677,6.426463
4782.676,6.226323
4809.675,6.125976
4836.674,5.937788
4863.673,5.707459
4890.672,5.767645
4917.671,5.826571
4944.67,5.802344
4971.669,5.586369
4998.668,5.821688
5025.667,5.943797
5052.666,5.97131
5079.665,5.922362
5106.664,5.897524
5133.663,5.973569
5160.662,5.8903
5187.661,5.884456
5214.66,5.907572
5241.659,5.960811
5268.658,6.004987
5295.657,5.986283
5322.656,6.079844
5349.655,5.919795
5376.654,5.70198
5403.652,5.545553
5430.651,5.294462
5457.65,5.232835
5484.649,5.10429
5511.648,5.132791
5538.647,5.141954
5565.646,5.168271
5592.646,5.380357
5619.645,5.15011
5646.644,4.818491
5673.643,4.519739
5700.642,4.955632
5727.641,4.786394
5754.639,4.409541
5781.638,4.259048
5808.637,4.447725
5835.636,4.798021
5862.635,5.881683
5889.634,7.366457
5916.633,8.14171
5943.632,8.754379
5970.631,9.575793
5997.63,10.41383
6024.629,11.05787
6051.628,11.51534
6078.627,11.80776
6105.626,11.71533
6132.625,12.09844
6159.624,12.36756
6186.623,12.54132
6213.622,12.65233
6240.621,12.74427
6267.62,12.79073
6294.619,12.82578
6321.618,12.84644
6348.617,12.74794
6375.616,12.53282
6402.615,12.41527
6429.614,12.16529
6456.613,11.78811
6483.612,10.70064
6510.61,11.26885
6537.609,11.54866
6564.608,11.73148
6591.607,11.88679
6618.606,11.90691
6645.605,11.83874
6672.604,11.70762
6699.604,11.50418
6726.603,11.22492
6753.602,10.97989
6780.601,10.65878
6807.6,10.10482
6834.599,9.53075
6861.598,9.282375
6888.597,8.963713
6915.596,8.678271
6942.594,8.149755
6969.593,8.050217
6996.592,7.955896
7023.591,7.688717
7050.59,7.654697
7077.589,7.871435
7104.588,8.425197
7131.587,8.883236
7158.586,7.91243
7185.585,7.580539
7212.584,9.288008
7239.583,10.59093
7266.582,11.75933
7293.581,12.79087
7320.58,13.66192
7347.579,14.23713
7374.578,14.51771
7401.577,14.66809
7428.576,14.76769
7455.575,14.8615
7482.574,14.90892
7509.573,14.89787
7536.572,14.88405
7563.571,14.81552
7590.57,14.74809
7617.569,14.6387
7644.568,14.48686
7671.566,14.36204
7698.565,14.29015
7725.564,14.2094
7752.563,14.13463
7779.563,14.02469
7806.562,13.95722
7833.561,13.85663
7860.56,13.69874
7887.559,13.47129
7914.558,13.21502
7941.557,12.91118
7968.556,12.52733
7995.555,12.0966
8022.554,11.58667
8049.553,10.99407
8076.552,10.3238
8103.551,9.578243
8130.55,8.684117
8157.548,7.750828
8184.547,6.807044
8211.546,6.278602
8238.545,6.308547
8265.544,6.501582
8292.543,7.067714
8319.542,7.762778
8346.541,8.52536
8373.54,9.447079
8400.539,10.03037
8427.538,9.960657
8454.537,10.73303
8481.536,11.44841
8508.535,12.02181
8535.534,12.23319
8562.533,11.49494
8589.532,12.46785
8616.531,13.8658
8643.53,14.76842
8670.529,15.33819
8697.528,15.83478
8724.527,16.35469
8751.525,16.86264
8778.524,17.24957
8805.523,17.47696
8832.522,17.60775
8859.521,17.67414
8886.521,17.72209
8913.52,17.70551
8940.519,17.67417
8967.518,17.69798
8994.517,17.77065
9021.516,17.81615
9048.515,17.87391
9075.514,17.9389
9102.513,17.95522
9129.512,17.96962
9156.511,17.93775
9183.51,17.91845
9210.509,17.90521
9237.508,17.86605
9264.507,17.84055
9291.506,17.80812
9318.504,17.85931
9345.503,17.8603
9372.502,17.80747
9399.501,17.72884
9426.5,17.64521
9453.499,17.5154
9480.498,17.42866
9507.497,17.38647
9534.496,17.28323
9561.495,17.22347
9588.494,17.13926
9615.493,17.17947
9642.492,17.36642
9669.491,17.5989
9696.49,17.82598
9723.489,18.02428
9750.488,18.24988
9777.487,18.32729
9804.486,18.35388
9831.485,18.43737
9858.484,18.62876
9885.482,18.84916
9912.481,19.06339
9939.48,19.24465
9966.479,19.41059
9993.479,19.52891
10020.48,19.60421
10047.48,19.72004
10074.48,19.76419
10101.47,19.87345
10128.47,19.94692
10155.47,19.98447
10182.47,19.99877
10209.47,20.05223
10236.47,20.03381
10263.47,20.08244
10290.47,20.03987
10317.47,20.0507
10344.47,20.02832
10371.46,20.01194
10398.46,19.97654
10425.46,19.99559
10452.46,19.91505
10479.46,19.84187
10506.46,19.64904
10533.46,19.41959
10560.46,19.16476
10587.46,18.75753
10614.46,18.24514
10641.45,17.65065
10668.45,17.01383
10695.45,16.56233
10722.45,16.3836
10749.45,16.5153
10776.45,16.84591
10803.45,17.36785
10830.45,17.87136
10857.45,18.32842
10884.45,18.84881
10911.44,19.30624
10938.44,19.73893
10965.44,20.12618
10992.44,20.411
11019.44,20.566
11046.44,20.7051
11073.44,20.86776
11100.44,20.99223
11127.44,20.94089
11154.43,21.11525
11181.43,21.16664
11208.43,21.45904
11235.43,21.60588
11262.43,21.77038
11289.43,21.88109
11316.43,22.00978
11343.43,22.12152
11370.43,22.19625
11397.43,22.3222
11424.42,22.33891
11451.42,22.48188
11478.42,22.48073
11505.42,22.5574
11532.42,22.69396
11559.42,22.69336
11586.42,22.77571
11613.42,22.78758
11640.42,22.92556
11667.42,22.92306
11694.41,22.92504
11721.41,22.93374
11748.41,22.94912
11775.41,22.77681
11802.41,22.84404
11829.41,22.87481
11856.41,22.9736
11883.41,23.02457
11910.41,22.86178
11937.41,22.86373
11964.4,22.8524
11991.4,22.62843
11999.12,22.64882