File: Data/NIR/S0048HDPE_6.csv
Wavenumber,Intensity
3999.706,3.260836
4026.705,3.23958
4053.704,3.253452
4080.703,3.254789
4107.702,3.255789
4134.701,3.264596
4161.7,3.264321
4188.699,3.292249
4215.698,3.330374
4242.697,3.345335
4269.696,3.383979
4296.694,3.423766
4323.693,3.366577
4350.692,3.409784
4377.691,3.504272
4404.69,3.796305
4431.689,4.187804
4458.688,4.545908
4485.688,4.866623
4512.687,5.228854
4539.686,5.555874
4566.685,5.909193
4593.683,6.112208
4620.682,6.22779
4647.681,6.292033
4674.68,6.189713
4701.679,6.401984
4728.678,6.27088
4755.677,6.194553
4782.676,5.971847
4809.675,5.852086
4836.674,5.635256
4863.673,5.377838
4890.672,5.438016
4917.671,5.492004
4944.67,5.459423
4971.669,5.234818
4998.668,5.461993
5025.667,5.583084
5052.666,5.594593
5079.665,5.544338
5106.664,5.51544
5133.663,5.574442
5160.662,5.467199
5187.661,5.455027
5214.66,5.466583
5241.659,5.511569
5268.658,5.543406
5295.657,5.507848
5322.656,5.594449
5349.655,5.435071
5376.654,5.218684
5403.652,5.050766
5430.651,4.783916
5457.65,4.734853
5484.649,4.596944
5511.648,4.627812
5538.647,4.623578
5565.646,4.641397
5592.646,4.850849
5619.645,4.618273
5646.644,4.285679
5673.643,3.954033
5700.642,4.379314
5727.641,4.187717
5754.639,3.821978
5781.638,3.653281
5808.637,3.852826
5835.636,4.203709
5862.635,5.194169
5889.634,6.503063
5916.633,7.201547
5943.632,7.82621
5970.631,8.644065
5997.63,9.513095
6024.629,10.195
6051.628,10.68438
6078.627,10.98591
6105.626,10.95955
6132.625,11.28692
6159.624,11.52559
6186.623,11.69621
6213.622,11.79524
6240.621,11.87524
6267.62,11.90226
6294.619,11.92153
6321.618,11.91489
6348.617,11.77761
6375.616,11.51097
6402.615,11.3556
6429.614,11.05639
6456.613,10.61489
6483.612,9.438369
6510.61,10.03197
6537.609,10.32325
6564.608,10.48841
6591.607,10.63916
6618.606,10.63805
6645.605,10.55209
6672.604,10.37901
6699.604,10.15136
6726.603,9.843716
6753.602,9.579911
6780.601,9.240013
6807.6,8.663069
6834.599,8.095245
6861.598,7.858206
6888.597,7.546879
6915.596,7.28133
6942.594,6.786235
6969.593,6.703796
6996.592,6.610514
7023.591,6.376139
7050.59,6.335331
7077.589,6.537302
7104.588,7.007732
7131.587,7.395985
7158.586,6.531928
7185.585,6.280879
7212.584,7.747258
7239.583,8.948842
7266.582,10.05964
7293.581,11.08454
7320.58,11.99323
7347.579,12.57344
7374.578,12.87869
7401.577,13.03355
7428.576,13.12668
7455.575,13.20967
7482.574,13.2439
7509.573,13.21142
7536.572,13.16656
7563.571,13.0724
7590.57,12.98257
7617.569,12.84076
7644.568,12.65624
7671.566,12.51234
7698.565,12.42076
7725.564,12.32131
7752.563,12.21922
7779.563,12.09676
7806.562,12.00272
7833.561,11.87284
7860.56,11.70258
7887.559,11.45432
7914.558,11.18528
7941.557,10.85176
7968.556,10.45502
7995.555,10.0318
8022.554,9.54462
8049.553,8.991469
8076.552,8.379529
8103.551,7.709584
8130.55,6.985233
8157.548,6.235485
8184.547,5.496453
8211.546,5.092227
8238.545,5.112947
8265.544,5.23664
8292.543,5.657832
8319.542,6.195103
8346.541,6.776967
8373.54,7.5252
8400.539,8.008946
8427.538,7.95114
8454.537,8.592131
8481.536,9.230192
8508.535,9.736972
8535.534,9.910316
8562.533,9.224966
8589.532,10.10993
8616.531,11.43194
8643.53,12.31442
8670.529,12.87452
8697.528,13.36701
8724.527,13.88765
8751.525,14.41004
8778.524,14.80054
8805.523,15.01043
8832.522,15.1451
8859.521,15.18495
8886.521,15.21084
8913.52,15.17837
8940.519,15.1359
8967.518,15.14845
8994.517,15.19349
9021.516,15.22682
9048.515,15.28245
9075.514,15.31089
9102.513,15.32889
9129.512,15.31294
9156.511,15.26454
9183.51,15.23035
9210.509,15.17676
9237.508,15.1399
9264.507,15.06819
9291.506,15.00552
9318.504,15.0628
9345.503,15.03402
9372.502,14.96742
9399.501,14.86758
9426.5,14.78185
9453.499,14.60287
9480.498,14.50886
9507.497,14.44627
9534.496,14.32993
9561.495,14.24372
9588.494,14.15225
9615.493,14.18543
9642.492,14.36181
9669.491,14.59506
9696.49,14.78759
9723.489,14.98608
9750.488,15.15359
9777.487,15.26498
9804.486,15.23309
9831.485,15.29226
9858.484,15.4507
9885.482,15.6604
9912.481,15.84301
9939.48,16.00914
9966.479,16.12823
9993.479,16.2243
10020.48,16.27847
10047.48,16.38884
10074.48,16.45966
10101.47,16.56884
10128.47,16.58783
10155.47,16.57335
10182.47,16.5951
10209.47,16.61711
10236.47,16.57323
10263.47,16.63059
10290.47,16.55356
10317.47,16.53495
10344.47,16.51792
10371.46,16.48879
10398.46,16.45569
10425.46,16.41229
10452.46,16.2961
10479.46,16.25193
10506.46,16.05067
10533.46,15.76846
10560.46,15.51681
10587.46,15.11783
10614.46,14.57859
10641.45,13.94308
10668.45,13.37651
10695.45,12.93343
10722.45,12.75241
10749.45,12.89575
10776.45,13.11364
10803.45,13.58328
10830.45,14.0665
10857.45,14.52385
10884.45,14.98092
10911.44,15.41742
10938.44,15.84546
10965.44,16.19945
10992.44,16.44269
11019.44,16.59533
11046.44,16.78922
11073.44,16.86036
11100.44,16.97792
11127.44,16.92881
11154.43,17.07568
11181.43,17.1378
11208.43,17.42489
11235.43,17.54245
11262.43,17.66748
11289.43,17.63234
11316.43,17.81277
11343.43,17.87712
11370.43,17.90505
11397.43,17.96853
11424.42,18.13552
11451.42,18.17696
11478.42,18.12376
11505.42,18.07227
11532.42,18.45636
11559.42,18.41429
11586.42,18.27862
11613.42,18.31074
11640.42,18.46928
11667.42,18.43931
11694.41,18.38666
11721.41,18.28476
11748.41,18.34148
11775.41,18.12671
11802.41,18.24083
11829.41,18.15408
11856.41,18.18268
11883.41,18.25627
11910.41,18.09457
11937.41,18.01191
11964.4,18.10715
11991.4,17.93858
11999.12,17.75727