File: Data/NIR/S0048HDPE_4.csv
Wavenumber,Intensity
3999.706,3.349011
4026.705,3.306122
4053.704,3.317813
4080.703,3.318665
4107.702,3.305848
4134.701,3.318531
4161.7,3.319358
4188.699,3.339942
4215.698,3.383299
4242.697,3.40257
4269.696,3.444627
4296.694,3.498824
4323.693,3.403447
4350.692,3.472312
4377.691,3.583836
4404.69,3.803249
4431.689,4.042762
4458.688,4.277466
4485.688,4.51321
4512.687,4.801073
4539.686,5.077754
4566.685,5.395965
4593.683,5.577243
4620.682,5.677208
4647.681,5.73396
4674.68,5.630958
4701.679,5.821671
4728.678,5.680909
4755.677,5.601659
4782.676,5.386077
4809.675,5.269412
4836.674,5.082411
4863.673,4.864241
4890.672,4.905336
4917.671,4.951365
4944.67,4.921649
4971.669,4.730803
4998.668,4.922396
5025.667,5.022688
5052.666,5.03337
5079.665,4.985612
5106.664,4.961551
5133.663,5.015407
5160.662,4.927173
5187.661,4.911592
5214.66,4.923009
5241.659,4.969809
5268.658,4.995141
5295.657,4.965409
5322.656,5.047523
5349.655,4.899374
5376.654,4.715523
5403.652,4.590304
5430.651,4.384033
5457.65,4.351467
5484.649,4.254834
5511.648,4.276518
5538.647,4.273591
5565.646,4.286814
5592.646,4.433922
5619.645,4.268624
5646.644,4.052142
5673.643,3.865462
5700.642,4.111379
5727.641,3.990441
5754.639,3.7867
5781.638,3.680339
5808.637,3.806332
5835.636,4.004081
5862.635,4.736866
5889.634,5.971024
5916.633,6.699397
5943.632,7.360122
5970.631,8.239366
5997.63,9.177518
6024.629,9.912053
6051.628,10.42654
6078.627,10.75573
6105.626,10.72425
6132.625,11.07823
6159.624,11.31884
6186.623,11.50203
6213.622,11.6018
6240.621,11.6908
6267.62,11.7139
6294.619,11.73729
6321.618,11.73241
6348.617,11.58451
6375.616,11.30986
6402.615,11.14744
6429.614,10.83451
6456.613,10.373
6483.612,9.124357
6510.61,9.757419
6537.609,10.06184
6564.608,10.2429
6591.607,10.39642
6618.606,10.39455
6645.605,10.30195
6672.604,10.13022
6699.604,9.88525
6726.603,9.561296
6753.602,9.283807
6780.601,8.921289
6807.6,8.308795
6834.599,7.70319
6861.598,7.444604
6888.597,7.124619
6915.596,6.843822
6942.594,6.333955
6969.593,6.249732
6996.592,6.158353
7023.591,5.902085
7050.59,5.881504
7077.589,6.085874
7104.588,6.574048
7131.587,6.973266
7158.586,6.075971
7185.585,5.808479
7212.584,7.338656
7239.583,8.594887
7266.582,9.756827
7293.581,10.82137
7320.58,11.75924
7347.579,12.3414
7374.578,12.63648
7401.577,12.7912
7428.576,12.88258
7455.575,12.96447
7482.574,12.99885
7509.573,12.95902
7536.572,12.90839
7563.571,12.81698
7590.57,12.71912
7617.569,12.57833
7644.568,12.39075
7671.566,12.23599
7698.565,12.13959
7725.564,12.04297
7752.563,11.93216
7779.563,11.79711
7806.562,11.71117
7833.561,11.57849
7860.56,11.38781
7887.559,11.14238
7914.558,10.86329
7941.557,10.52442
7968.556,10.11254
7995.555,9.678169
8022.554,9.156675
8049.553,8.586279
8076.552,7.93593
8103.551,7.251932
8130.55,6.492685
8157.548,5.73929
8184.547,5.044145
8211.546,4.686952
8238.545,4.693465
8265.544,4.829802
8292.543,5.210225
8319.542,5.720435
8346.541,6.310654
8373.54,7.062777
8400.539,7.554012
8427.538,7.477869
8454.537,8.152386
8481.536,8.799167
8508.535,9.321142
8535.534,9.495581
8562.533,8.783867
8589.532,9.704803
8616.531,11.05116
8643.53,11.93388
8670.529,12.48107
8697.528,12.96404
8724.527,13.47897
8751.525,13.98213
8778.524,14.35405
8805.523,14.56226
8832.522,14.68323
8859.521,14.72441
8886.521,14.74553
8913.52,14.69848
8940.519,14.67058
8967.518,14.67533
8994.517,14.71668
9021.516,14.76358
9048.515,14.79419
9075.514,14.82167
9102.513,14.84944
9129.512,14.82711
9156.511,14.78234
9183.51,14.75619
9210.509,14.67653
9237.508,14.63808
9264.507,14.5853
9291.506,14.5253
9318.504,14.5655
9345.503,14.55373
9372.502,14.47725
9399.501,14.36669
9426.5,14.27331
9453.499,14.1281
9480.498,14.01269
9507.497,13.94604
9534.496,13.83889
9561.495,13.74564
9588.494,13.63769
9615.493,13.70023
9642.492,13.85236
9669.491,14.08269
9696.49,14.23651
9723.489,14.43154
9750.488,14.59145
9777.487,14.69608
9804.486,14.69504
9831.485,14.71138
9858.484,14.86389
9885.482,15.07247
9912.481,15.22138
9939.48,15.38707
9966.479,15.51405
9993.479,15.60527
10020.48,15.64515
10047.48,15.76397
10074.48,15.81177
10101.47,15.87186
10128.47,15.91488
10155.47,15.94106
10182.47,15.93073
10209.47,15.93556
10236.47,15.92727
10263.47,15.9488
10290.47,15.90749
10317.47,15.84515
10344.47,15.82737
10371.46,15.78649
10398.46,15.77032
10425.46,15.71339
10452.46,15.6271
10479.46,15.59119
10506.46,15.36987
10533.46,15.12257
10560.46,14.84819
10587.46,14.44437
10614.46,13.97445
10641.45,13.32006
10668.45,12.79198
10695.45,12.27491
10722.45,12.14953
10749.45,12.23952
10776.45,12.53988
10803.45,13.0003
10830.45,13.45022
10857.45,13.85176
10884.45,14.33292
10911.44,14.71618
10938.44,15.09426
10965.44,15.45782
10992.44,15.67122
11019.44,15.8146
11046.44,15.98523
11073.44,16.07708
11100.44,16.11325
11127.44,16.0544
11154.43,16.2489
11181.43,16.27088
11208.43,16.522
11235.43,16.68019
11262.43,16.7509
11289.43,16.75056
11316.43,16.79607
11343.43,16.96475
11370.43,17.0963
11397.43,16.95804
11424.42,17.15965
11451.42,17.18098
11478.42,17.17086
11505.42,17.14923
11532.42,17.36115
11559.42,17.29135
11586.42,17.31445
11613.42,17.32071
11640.42,17.33043
11667.42,17.41383
11694.41,17.36471
11721.41,17.30152
11748.41,17.36762
11775.41,17.32133
11802.41,17.29527
11829.41,17.233
11856.41,17.2281
11883.41,17.38761
11910.41,17.08735
11937.41,17.17232
11964.4,17.04222
11991.4,16.90482
11999.12,16.7619