File: Data/NIR/S0040HDPE_4.csv
Wavenumber,Intensity
3999.706,1.950652
4026.705,1.920469
4053.704,1.923172
4080.703,1.914536
4107.702,1.900506
4134.701,1.915204
4161.7,1.912664
4188.699,1.925931
4215.698,1.954979
4242.697,1.961094
4269.696,1.983989
4296.694,2.016897
4323.693,1.958363
4350.692,1.996597
4377.691,2.080359
4404.69,2.289852
4431.689,2.557723
4458.688,2.833156
4485.688,3.096328
4512.687,3.438465
4539.686,3.746385
4566.685,4.083713
4593.683,4.28002
4620.682,4.395028
4647.681,4.458885
4674.68,4.363977
4701.679,4.542589
4728.678,4.389629
4755.677,4.320881
4782.676,4.104743
4809.675,3.989622
4836.674,3.791592
4863.673,3.555976
4890.672,3.614886
4917.671,3.669709
4944.67,3.641174
4971.669,3.42789
4998.668,3.655402
5025.667,3.776285
5052.666,3.795088
5079.665,3.745819
5106.664,3.72007
5133.663,3.790373
5160.662,3.700098
5187.661,3.693483
5214.66,3.710321
5241.659,3.760698
5268.658,3.80759
5295.657,3.782708
5322.656,3.874634
5349.655,3.712226
5376.654,3.50973
5403.652,3.353071
5430.651,3.121224
5457.65,3.066672
5484.649,2.943739
5511.648,2.972702
5538.647,2.97364
5565.646,2.99902
5592.646,3.189414
5619.645,2.981908
5646.644,2.688528
5673.643,2.432225
5700.642,2.804737
5727.641,2.663863
5754.639,2.328182
5781.638,2.162407
5808.637,2.356136
5835.636,2.66836
5862.635,3.629441
5889.634,5.111957
5916.633,5.932897
5943.632,6.595012
5970.631,7.485576
5997.63,8.421091
6024.629,9.140746
6051.628,9.644501
6078.627,9.962481
6105.626,9.846354
6132.625,10.27285
6159.624,10.56361
6186.623,10.75608
6213.622,10.87099
6240.621,10.96103
6267.62,10.99688
6294.619,11.03164
6321.618,11.03763
6348.617,10.92487
6375.616,10.67404
6402.615,10.52169
6429.614,10.24025
6456.613,9.80317
6483.612,8.582397
6510.61,9.205626
6537.609,9.512371
6564.608,9.702412
6591.607,9.863375
6618.606,9.876942
6645.605,9.794877
6672.604,9.636069
6699.604,9.407746
6726.603,9.090922
6753.602,8.817838
6780.601,8.457267
6807.6,7.847925
6834.599,7.218765
6861.598,6.959939
6888.597,6.611712
6915.596,6.309389
6942.594,5.767383
6969.593,5.668125
6996.592,5.57074
7023.591,5.298577
7050.59,5.264448
7077.589,5.488047
7104.588,6.045966
7131.587,6.511594
7158.586,5.517525
7185.585,5.189992
7212.584,6.900935
7239.583,8.258395
7266.582,9.494782
7293.581,10.61104
7320.58,11.55683
7347.579,12.17579
7374.578,12.46471
7401.577,12.62206
7428.576,12.71437
7455.575,12.80692
7482.574,12.85147
7509.573,12.82481
7536.572,12.79289
7563.571,12.71142
7590.57,12.62873
7617.569,12.49898
7644.568,12.32318
7671.566,12.1858
7698.565,12.08869
7725.564,11.99485
7752.563,11.89565
7779.563,11.76716
7806.562,11.68197
7833.561,11.55626
7860.56,11.37835
7887.559,11.12947
7914.558,10.84628
7941.557,10.5142
7968.556,10.09429
7995.555,9.62746
8022.554,9.081033
8049.553,8.456435
8076.552,7.751905
8103.551,6.98894
8130.55,6.116497
8157.548,5.219802
8184.547,4.344898
8211.546,3.888175
8238.545,3.910091
8265.544,4.081109
8292.543,4.57844
8319.542,5.22171
8346.541,5.914102
8373.54,6.80855
8400.539,7.386629
8427.538,7.317139
8454.537,8.087327
8481.536,8.806449
8508.535,9.389501
8535.534,9.596938
8562.533,8.842607
8589.532,9.826632
8616.531,11.28031
8643.53,12.24026
8670.529,12.83396
8697.528,13.36816
8724.527,13.8902
8751.525,14.43206
8778.524,14.81797
8805.523,15.04172
8832.522,15.1747
8859.521,15.2335
8886.521,15.2727
8913.52,15.25389
8940.519,15.21188
8967.518,15.21441
8994.517,15.26847
9021.516,15.31413
9048.515,15.37797
9075.514,15.40456
9102.513,15.42422
9129.512,15.44126
9156.511,15.38221
9183.51,15.35843
9210.509,15.32007
9237.508,15.28909
9264.507,15.23162
9291.506,15.19781
9318.504,15.22765
9345.503,15.22267
9372.502,15.16641
9399.501,15.04805
9426.5,14.9532
9453.499,14.81755
9480.498,14.69444
9507.497,14.65906
9534.496,14.54627
9561.495,14.46248
9588.494,14.34393
9615.493,14.42057
9642.492,14.58331
9669.491,14.82568
9696.49,15.04355
9723.489,15.22239
9750.488,15.43041
9777.487,15.54157
9804.486,15.52425
9831.485,15.58229
9858.484,15.79785
9885.482,16.03648
9912.481,16.23349
9939.48,16.42215
9966.479,16.57806
9993.479,16.65219
10020.48,16.75762
10047.48,16.85812
10074.48,16.88973
10101.47,17.00416
10128.47,17.05017
10155.47,17.09908
10182.47,17.05891
10209.47,17.09428
10236.47,17.11559
10263.47,17.12081
10290.47,17.10434
10317.47,17.0838
10344.47,17.06282
10371.46,17.03789
10398.46,17.01623
10425.46,17.00055
10452.46,16.8317
10479.46,16.77319
10506.46,16.63741
10533.46,16.34597
10560.46,16.09074
10587.46,15.63272
10614.46,15.10694
10641.45,14.47532
10668.45,13.80329
10695.45,13.3362
10722.45,13.19866
10749.45,13.30104
10776.45,13.58343
10803.45,14.14155
10830.45,14.62101
10857.45,15.06383
10884.45,15.6206
10911.44,16.05555
10938.44,16.47166
10965.44,16.84868
10992.44,17.1902
11019.44,17.37623
11046.44,17.46654
11073.44,17.58455
11100.44,17.73706
11127.44,17.61994
11154.43,17.81318
11181.43,17.87997
11208.43,18.14717
11235.43,18.31121
11262.43,18.53052
11289.43,18.50519
11316.43,18.67411
11343.43,18.74721
11370.43,18.81436
11397.43,18.87824
11424.42,18.99783
11451.42,19.08466
11478.42,19.09394
11505.42,19.14215
11532.42,19.32925
11559.42,19.35398
11586.42,19.24444
11613.42,19.33868
11640.42,19.45298
11667.42,19.58307
11694.41,19.457
11721.41,19.39681
11748.41,19.47851
11775.41,19.34585
11802.41,19.29383
11829.41,19.44336
11856.41,19.31614
11883.41,19.32139
11910.41,19.33798
11937.41,19.21081
11964.4,19.24164
11991.4,19.19615
11999.12,19.0583