File: Data/NIR/S0048HDPE_3.csv
Wavenumber,Intensity
3999.706,3.195312
4026.705,3.183822
4053.704,3.194163
4080.703,3.199131
4107.702,3.20661
4134.701,3.204872
4161.7,3.221468
4188.699,3.233354
4215.698,3.276929
4242.697,3.296653
4269.696,3.322446
4296.694,3.353034
4323.693,3.314738
4350.692,3.347315
4377.691,3.42035
4404.69,3.639505
4431.689,3.939684
4458.688,4.259824
4485.688,4.586436
4512.687,4.97422
4539.686,5.341389
4566.685,5.753448
4593.683,5.988227
4620.682,6.123975
4647.681,6.206703
4674.68,6.096278
4701.679,6.338018
4728.678,6.183128
4755.677,6.091883
4782.676,5.839127
4809.675,5.707104
4836.674,5.471656
4863.673,5.19416
4890.672,5.267892
4917.671,5.331761
4944.67,5.298294
4971.669,5.058647
4998.668,5.309572
5025.667,5.450502
5052.666,5.471111
5079.665,5.41604
5106.664,5.386809
5133.663,5.456927
5160.662,5.345592
5187.661,5.331604
5214.66,5.346017
5241.659,5.398791
5268.658,5.440168
5295.657,5.405381
5322.656,5.501763
5349.655,5.319666
5376.654,5.081484
5403.652,4.906801
5430.651,4.640268
5457.65,4.587967
5484.649,4.456265
5511.648,4.482732
5538.647,4.478689
5565.646,4.496579
5592.646,4.692662
5619.645,4.46172
5646.644,4.162899
5673.643,3.902103
5700.642,4.249723
5727.641,4.079366
5754.639,3.798335
5781.638,3.643569
5808.637,3.821469
5835.636,4.094273
5862.635,5.041312
5889.634,6.557564
5916.633,7.397616
5943.632,8.15702
5970.631,9.142106
5997.63,10.17639
6024.629,10.98722
6051.628,11.55948
6078.627,11.90873
6105.626,11.87767
6132.625,12.25475
6159.624,12.51848
6186.623,12.72021
6213.622,12.83537
6240.621,12.92439
6267.62,12.94654
6294.619,12.96605
6321.618,12.95776
6348.617,12.79565
6375.616,12.48839
6402.615,12.30214
6429.614,11.9525
6456.613,11.44493
6483.612,10.05567
6510.61,10.75559
6537.609,11.08366
6564.608,11.27823
6591.607,11.4469
6618.606,11.44097
6645.605,11.33639
6672.604,11.14703
6699.604,10.87374
6726.603,10.49669
6753.602,10.19151
6780.601,9.784405
6807.6,9.107958
6834.599,8.418158
6861.598,8.124516
6888.597,7.755267
6915.596,7.440265
6942.594,6.852587
6969.593,6.75315
6996.592,6.646813
7023.591,6.358103
7050.59,6.316546
7077.589,6.54789
7104.588,7.107429
7131.587,7.572447
7158.586,6.542484
7185.585,6.235038
7212.584,7.96353
7239.583,9.377884
7266.582,10.68105
7293.581,11.87091
7320.58,12.91617
7347.579,13.57343
7374.578,13.90112
7401.577,14.07687
7428.576,14.19213
7455.575,14.2774
7482.574,14.30872
7509.573,14.25856
7536.572,14.20548
7563.571,14.11167
7590.57,13.99359
7617.569,13.84054
7644.568,13.62365
7671.566,13.45785
7698.565,13.36328
7725.564,13.23509
7752.563,13.12866
7779.563,12.97713
7806.562,12.87208
7833.561,12.72669
7860.56,12.51417
7887.559,12.23354
7914.558,11.90633
7941.557,11.53457
7968.556,11.07674
7995.555,10.5831
8022.554,9.997052
8049.553,9.33913
8076.552,8.616794
8103.551,7.843231
8130.55,6.985158
8157.548,6.116963
8184.547,5.301741
8211.546,4.864376
8238.545,4.875396
8265.544,5.022769
8292.543,5.479171
8319.542,6.080767
8346.541,6.750952
8373.54,7.605268
8400.539,8.156253
8427.538,8.092351
8454.537,8.85137
8481.536,9.586765
8508.535,10.16011
8535.534,10.36779
8562.533,9.555883
8589.532,10.59307
8616.531,12.11051
8643.53,13.10758
8670.529,13.72141
8697.528,14.28711
8724.527,14.8478
8751.525,15.43877
8778.524,15.85856
8805.523,16.09354
8832.522,16.22906
8859.521,16.27898
8886.521,16.29366
8913.52,16.26656
8940.519,16.21733
8967.518,16.22788
8994.517,16.26259
9021.516,16.31805
9048.515,16.37194
9075.514,16.38993
9102.513,16.42549
9129.512,16.38822
9156.511,16.35851
9183.51,16.28179
9210.509,16.23317
9237.508,16.18183
9264.507,16.13096
9291.506,16.09213
9318.504,16.08165
9345.503,16.07964
9372.502,15.98581
9399.501,15.88988
9426.5,15.75354
9453.499,15.60369
9480.498,15.48212
9507.497,15.38415
9534.496,15.32839
9561.495,15.17224
9588.494,15.06273
9615.493,15.12655
9642.492,15.28587
9669.491,15.53975
9696.49,15.73091
9723.489,15.9601
9750.488,16.16049
9777.487,16.22533
9804.486,16.2543
9831.485,16.25182
9858.484,16.4212
9885.482,16.70827
9912.481,16.85172
9939.48,17.00652
9966.479,17.15166
9993.479,17.25603
10020.48,17.30368
10047.48,17.40167
10074.48,17.51861
10101.47,17.58436
10128.47,17.58395
10155.47,17.60177
10182.47,17.62199
10209.47,17.59248
10236.47,17.58751
10263.47,17.57853
10290.47,17.527
10317.47,17.49876
10344.47,17.48524
10371.46,17.47824
10398.46,17.40941
10425.46,17.38373
10452.46,17.26169
10479.46,17.12803
10506.46,16.95064
10533.46,16.70349
10560.46,16.35025
10587.46,15.90572
10614.46,15.33754
10641.45,14.67622
10668.45,13.97467
10695.45,13.45265
10722.45,13.26828
10749.45,13.37779
10776.45,13.74518
10803.45,14.16935
10830.45,14.70588
10857.45,15.15805
10884.45,15.7413
10911.44,16.14522
10938.44,16.6238
10965.44,17.02489
10992.44,17.28981
11019.44,17.47557
11046.44,17.58229
11073.44,17.74346
11100.44,17.77602
11127.44,17.75146
11154.43,17.93775
11181.43,17.97449
11208.43,18.24024
11235.43,18.37618
11262.43,18.56128
11289.43,18.57051
11316.43,18.62214
11343.43,18.62974
11370.43,18.65695
11397.43,18.80449
11424.42,18.86483
11451.42,18.93074
11478.42,19.03737
11505.42,19.00599
11532.42,19.2178
11559.42,19.18304
11586.42,19.22387
11613.42,19.1728
11640.42,19.20663
11667.42,19.1173
11694.41,19.14591
11721.41,19.15046
11748.41,19.31703
11775.41,19.19185
11802.41,19.22692
11829.41,19.15006
11856.41,19.24079
11883.41,19.21344
11910.41,19.43145
11937.41,19.32867
11964.4,19.54807
11991.4,19.55373
11999.12,19.45622