File: Data/NIR/S0040HDPE_6.csv
Wavenumber,Intensity
3999.706,4.617314
4026.705,4.61636
4053.704,4.636569
4080.703,4.648867
4107.702,4.648989
4134.701,4.661477
4161.7,4.666965
4188.699,4.701762
4215.698,4.757671
4242.697,4.787925
4269.696,4.821465
4296.694,4.853691
4323.693,4.818944
4350.692,4.848317
4377.691,4.906064
4404.69,5.081703
4431.689,5.342556
4458.688,5.607127
4485.688,5.849781
4512.687,6.164859
4539.686,6.463475
4566.685,6.809651
4593.683,7.015263
4620.682,7.135299
4647.681,7.214617
4674.68,7.135923
4701.679,7.326852
4728.678,7.209174
4755.677,7.159433
4782.676,6.966829
4809.675,6.871964
4836.674,6.69554
4863.673,6.476865
4890.672,6.542099
4917.671,6.602776
4944.67,6.581436
4971.669,6.378454
4998.668,6.609657
5025.667,6.735434
5052.666,6.764416
5079.665,6.722214
5106.664,6.706828
5133.663,6.7853
5160.662,6.706481
5187.661,6.70595
5214.66,6.729618
5241.659,6.787299
5268.658,6.846302
5295.657,6.821794
5322.656,6.922082
5349.655,6.765718
5376.654,6.560917
5403.652,6.401454
5430.651,6.160748
5457.65,6.105616
5484.649,5.976092
5511.648,6.011245
5538.647,6.018076
5565.646,6.05099
5592.646,6.266138
5619.645,6.039309
5646.644,5.71971
5673.643,5.429358
5700.642,5.857303
5727.641,5.691327
5754.639,5.323695
5781.638,5.178172
5808.637,5.360921
5835.636,5.710413
5862.635,6.796415
5889.634,8.354287
5916.633,9.190084
5943.632,9.864429
5970.631,10.77196
5997.63,11.71864
6024.629,12.45037
6051.628,12.97136
6078.627,13.30402
6105.626,13.20664
6132.625,13.64658
6159.624,13.95445
6186.623,14.16328
6213.622,14.29218
6240.621,14.39482
6267.62,14.45809
6294.619,14.50648
6321.618,14.53205
6348.617,14.41832
6375.616,14.18782
6402.615,14.05462
6429.614,13.77244
6456.613,13.34666
6483.612,12.11822
6510.61,12.76925
6537.609,13.0956
6564.608,13.2955
6591.607,13.47665
6618.606,13.50138
6645.605,13.436
6672.604,13.28849
6699.604,13.05655
6726.603,12.75058
6753.602,12.48494
6780.601,12.12094
6807.6,11.4982
6834.599,10.85869
6861.598,10.59278
6888.597,10.23447
6915.596,9.922424
6942.594,9.348088
6969.593,9.238208
6996.592,9.143157
7023.591,8.84652
7050.59,8.817089
7077.589,9.056428
7104.588,9.67015
7131.587,10.17937
7158.586,9.110103
7185.585,8.753855
7212.584,10.64009
7239.583,12.11458
7266.582,13.42229
7293.581,14.60072
7320.58,15.59353
7347.579,16.25983
7374.578,16.57138
7401.577,16.74677
7428.576,16.86841
7455.575,16.97179
7482.574,17.03144
7509.573,17.00919
7536.572,16.99838
7563.571,16.9248
7590.57,16.85676
7617.569,16.73517
7644.568,16.55317
7671.566,16.43129
7698.565,16.34434
7725.564,16.24693
7752.563,16.1635
7779.563,16.04709
7806.562,15.97053
7833.561,15.85151
7860.56,15.68456
7887.559,15.41245
7914.558,15.14089
7941.557,14.79011
7968.556,14.35292
7995.555,13.87539
8022.554,13.30273
8049.553,12.63454
8076.552,11.883
8103.551,11.04228
8130.55,10.06605
8157.548,9.032915
8184.547,7.994356
8211.546,7.411995
8238.545,7.45208
8265.544,7.671849
8292.543,8.305546
8319.542,9.078742
8346.541,9.898309
8373.54,10.93406
8400.539,11.59222
8427.538,11.51595
8454.537,12.37836
8481.536,13.18112
8508.535,13.83124
8535.534,14.05453
8562.533,13.23409
8589.532,14.34845
8616.531,15.91708
8643.53,16.94557
8670.529,17.59594
8697.528,18.15185
8724.527,18.74515
8751.525,19.33127
8778.524,19.75507
8805.523,20.01987
8832.522,20.18022
8859.521,20.24898
8886.521,20.31156
8913.52,20.28482
8940.519,20.26012
8967.518,20.28764
8994.517,20.35279
9021.516,20.42064
9048.515,20.49042
9075.514,20.55441
9102.513,20.59345
9129.512,20.59621
9156.511,20.56434
9183.51,20.54562
9210.509,20.52857
9237.508,20.50121
9264.507,20.46088
9291.506,20.41616
9318.504,20.48419
9345.503,20.48187
9372.502,20.42894
9399.501,20.32551
9426.5,20.24311
9453.499,20.09329
9480.498,19.99657
9507.497,19.9284
9534.496,19.84435
9561.495,19.75209
9588.494,19.67199
9615.493,19.74435
9642.492,19.92393
9669.491,20.22435
9696.49,20.43285
9723.489,20.65291
9750.488,20.89401
9777.487,21.02833
9804.486,21.06499
9831.485,21.11382
9858.484,21.35002
9885.482,21.60854
9912.481,21.83985
9939.48,22.03245
9966.479,22.23465
9993.479,22.35166
10020.48,22.48243
10047.48,22.5719
10074.48,22.67981
10101.47,22.77688
10128.47,22.85216
10155.47,22.87791
10182.47,22.91925
10209.47,22.93689
10236.47,22.95568
10263.47,23.02353
10290.47,22.95856
10317.47,22.93806
10344.47,22.95225
10371.46,22.90813
10398.46,22.9402
10425.46,22.91171
10452.46,22.77928
10479.46,22.73481
10506.46,22.56786
10533.46,22.30838
10560.46,21.96486
10587.46,21.5465
10614.46,20.95936
10641.45,20.27236
10668.45,19.58313
10695.45,19.06443
10722.45,18.86912
10749.45,18.99467
10776.45,19.33407
10803.45,19.94188
10830.45,20.51806
10857.45,21.02017
10884.45,21.60818
10911.44,22.09625
10938.44,22.63634
10965.44,23.02965
10992.44,23.37319
11019.44,23.59589
11046.44,23.722
11073.44,23.85487
11100.44,23.9491
11127.44,23.94868
11154.43,24.173
11181.43,24.36038
11208.43,24.61522
11235.43,24.7198
11262.43,24.97161
11289.43,25.01168
11316.43,25.2068
11343.43,25.2878
11370.43,25.38382
11397.43,25.46475
11424.42,25.57164
11451.42,25.66882
11478.42,25.7483
11505.42,25.78306
11532.42,26.04084
11559.42,25.97892
11586.42,25.98292
11613.42,26.14972
11640.42,26.18549
11667.42,26.43468
11694.41,26.20457
11721.41,26.23868
11748.41,26.26056
11775.41,26.18534
11802.41,26.20658
11829.41,26.27327
11856.41,26.22669
11883.41,26.39854
11910.41,26.2581
11937.41,26.21321
11964.4,26.27473
11991.4,26.13767
11999.12,26.07696