File: Data/NIR/S0048HDPE_1.csv
Wavenumber,Intensity
3999.706,3.978348
4026.705,3.932379
4053.704,3.943816
4080.703,3.930391
4107.702,3.914897
4134.701,3.926601
4161.7,3.94029
4188.699,3.956657
4215.698,4.013876
4242.697,4.042304
4269.696,4.10094
4296.694,4.168602
4323.693,4.044492
4350.692,4.129462
4377.691,4.281854
4404.69,4.553522
4431.689,4.853657
4458.688,5.148064
4485.688,5.429276
4512.687,5.77161
4539.686,6.096006
4566.685,6.464432
4593.683,6.662422
4620.682,6.76666
4647.681,6.821589
4674.68,6.692267
4701.679,6.904991
4728.678,6.740888
4755.677,6.643955
4782.676,6.387872
4809.675,6.248595
4836.674,6.021311
4863.673,5.756044
4890.672,5.80829
4917.671,5.859308
4944.67,5.815216
4971.669,5.588399
4998.668,5.804865
5025.667,5.921893
5052.666,5.930162
5079.665,5.873555
5106.664,5.843767
5133.663,5.905793
5160.662,5.796538
5187.661,5.782083
5214.66,5.790903
5241.659,5.835743
5268.658,5.865774
5295.657,5.829003
5322.656,5.91421
5349.655,5.755075
5376.654,5.547531
5403.652,5.387554
5430.651,5.159601
5457.65,5.108943
5484.649,4.989289
5511.648,5.013976
5538.647,5.01111
5565.646,5.024919
5592.646,5.201514
5619.645,4.997217
5646.644,4.746095
5673.643,4.53722
5700.642,4.823396
5727.641,4.675722
5754.639,4.458343
5781.638,4.352171
5808.637,4.480476
5835.636,4.6976
5862.635,5.544891
5889.634,6.940124
5916.633,7.72766
5943.632,8.444098
5970.631,9.383189
5997.63,10.38139
6024.629,11.16127
6051.628,11.70909
6078.627,12.04492
6105.626,12.02463
6132.625,12.38664
6159.624,12.65083
6186.623,12.84895
6213.622,12.96787
6240.621,13.05779
6267.62,13.08047
6294.619,13.10677
6321.618,13.10642
6348.617,12.96251
6375.616,12.6721
6402.615,12.50041
6429.614,12.17297
6456.613,11.69493
6483.612,10.37102
6510.61,11.05491
6537.609,11.37669
6564.608,11.56306
6591.607,11.7297
6618.606,11.73213
6645.605,11.63701
6672.604,11.46279
6699.604,11.20018
6726.603,10.84965
6753.602,10.56344
6780.601,10.17698
6807.6,9.529669
6834.599,8.874026
6861.598,8.59751
6888.597,8.240589
6915.596,7.943194
6942.594,7.380875
6969.593,7.289477
6996.592,7.18934
7023.591,6.911208
7050.59,6.879535
7077.589,7.103094
7104.588,7.654251
7131.587,8.09327
7158.586,7.107963
7185.585,6.810956
7212.584,8.502679
7239.583,9.866385
7266.582,11.12825
7293.581,12.27693
7320.58,13.27754
7347.579,13.91827
7374.578,14.23746
7401.577,14.39808
7428.576,14.50565
7455.575,14.59906
7482.574,14.63301
7509.573,14.58909
7536.572,14.54805
7563.571,14.45588
7590.57,14.35421
7617.569,14.20384
7644.568,13.99743
7671.566,13.83801
7698.565,13.76393
7725.564,13.63145
7752.563,13.53428
7779.563,13.40007
7806.562,13.30164
7833.561,13.16199
7860.56,12.96643
7887.559,12.69906
7914.558,12.39484
7941.557,12.03408
7968.556,11.59948
7995.555,11.11696
8022.554,10.55852
8049.553,9.914408
8076.552,9.221581
8103.551,8.473692
8130.55,7.627137
8157.548,6.784008
8184.547,5.993073
8211.546,5.559367
8238.545,5.578976
8265.544,5.720398
8292.543,6.173151
8319.542,6.752609
8346.541,7.413899
8373.54,8.264924
8400.539,8.807633
8427.538,8.730689
8454.537,9.488791
8481.536,10.21722
8508.535,10.76892
8535.534,10.96914
8562.533,10.17081
8589.532,11.20382
8616.531,12.67898
8643.53,13.65125
8670.529,14.25468
8697.528,14.79628
8724.527,15.35503
8751.525,15.91343
8778.524,16.31476
8805.523,16.55801
8832.522,16.67638
8859.521,16.73349
8886.521,16.75614
8913.52,16.72156
8940.519,16.68555
8967.518,16.69221
8994.517,16.73853
9021.516,16.80417
9048.515,16.85338
9075.514,16.88214
9102.513,16.9165
9129.512,16.90851
9156.511,16.86558
9183.51,16.79338
9210.509,16.74139
9237.508,16.70306
9264.507,16.66843
9291.506,16.62046
9318.504,16.63349
9345.503,16.62948
9372.502,16.54815
9399.501,16.43407
9426.5,16.30692
9453.499,16.16823
9480.498,16.05974
9507.497,15.96192
9534.496,15.90046
9561.495,15.77279
9588.494,15.66946
9615.493,15.72565
9642.492,15.90795
9669.491,16.1564
9696.49,16.31821
9723.489,16.54616
9750.488,16.76469
9777.487,16.85933
9804.486,16.84344
9831.485,16.86411
9858.484,17.04815
9885.482,17.26958
9912.481,17.45087
9939.48,17.60392
9966.479,17.73093
9993.479,17.85154
10020.48,17.93498
10047.48,18.01027
10074.48,18.11287
10101.47,18.14797
10128.47,18.19616
10155.47,18.19267
10182.47,18.21869
10209.47,18.22815
10236.47,18.19674
10263.47,18.20042
10290.47,18.1867
10317.47,18.14999
10344.47,18.08108
10371.46,18.0811
10398.46,18.03088
10425.46,18.03154
10452.46,17.9313
10479.46,17.80782
10506.46,17.62882
10533.46,17.42743
10560.46,17.06319
10587.46,16.59481
10614.46,16.02334
10641.45,15.37584
10668.45,14.72564
10695.45,14.22141
10722.45,14.06669
10749.45,14.15022
10776.45,14.48265
10803.45,14.9418
10830.45,15.45215
10857.45,15.97625
10884.45,16.4623
10911.44,16.88439
10938.44,17.29089
10965.44,17.76711
10992.44,18.05043
11019.44,18.16293
11046.44,18.31276
11073.44,18.47052
11100.44,18.47952
11127.44,18.52231
11154.43,18.60944
11181.43,18.74062
11208.43,18.94616
11235.43,19.11626
11262.43,19.23026
11289.43,19.32202
11316.43,19.24397
11343.43,19.39795
11370.43,19.40878
11397.43,19.54966
11424.42,19.55957
11451.42,19.66307
11478.42,19.83509
11505.42,19.70796
11532.42,19.78994
11559.42,19.93277
11586.42,19.96112
11613.42,19.96923
11640.42,19.9381
11667.42,19.95272
11694.41,20.03235
11721.41,20.01748
11748.41,19.95296
11775.41,19.93178
11802.41,20.04457
11829.41,20.09608
11856.41,20.00694
11883.41,20.01007
11910.41,20.13623
11937.41,20.19533
11964.4,20.31173
11991.4,20.26901
11999.12,20.23955