File: Data/NIR/S0048HDPE_2.csv
Wavenumber,Intensity
3999.706,3.241219
4026.705,3.213754
4053.704,3.224926
4080.703,3.226941
4107.702,3.218246
4134.701,3.228332
4161.7,3.237005
4188.699,3.251351
4215.698,3.295181
4242.697,3.312443
4269.696,3.351496
4296.694,3.397673
4323.693,3.325697
4350.692,3.379856
4377.691,3.477812
4404.69,3.682807
4431.689,3.906054
4458.688,4.115964
4485.688,4.317693
4512.687,4.566
4539.686,4.807543
4566.685,5.092177
4593.683,5.251489
4620.682,5.343239
4647.681,5.3971
4674.68,5.314091
4701.679,5.483961
4728.678,5.37079
4755.677,5.303915
4782.676,5.116598
4809.675,5.02532
4836.674,4.863929
4863.673,4.676016
4890.672,4.720845
4917.671,4.762065
4944.67,4.734826
4971.669,4.571671
4998.668,4.734652
5025.667,4.822619
5052.666,4.83258
5079.665,4.796606
5106.664,4.773541
5133.663,4.823533
5160.662,4.746356
5187.661,4.737068
5214.66,4.743752
5241.659,4.782892
5268.658,4.809595
5295.657,4.784969
5322.656,4.850293
5349.655,4.732298
5376.654,4.578351
5403.652,4.460903
5430.651,4.293344
5457.65,4.258027
5484.649,4.172975
5511.648,4.190924
5538.647,4.189177
5565.646,4.198257
5592.646,4.332724
5619.645,4.1838
5646.644,3.988549
5673.643,3.812939
5700.642,4.049434
5727.641,3.932004
5754.639,3.740393
5781.638,3.618681
5808.637,3.754981
5835.636,3.947922
5862.635,4.591585
5889.634,5.68188
5916.633,6.336063
5943.632,6.946243
5970.631,7.770617
5997.63,8.673532
6024.629,9.397552
6051.628,9.918453
6078.627,10.23543
6105.626,10.21515
6132.625,10.56268
6159.624,10.81345
6186.623,11.00532
6213.622,11.11736
6240.621,11.20497
6267.62,11.23002
6294.619,11.25693
6321.618,11.25076
6348.617,11.10991
6375.616,10.83175
6402.615,10.66679
6429.614,10.35345
6456.613,9.896621
6483.612,8.658115
6510.61,9.292668
6537.609,9.589555
6564.608,9.768544
6591.607,9.930682
6618.606,9.932032
6645.605,9.84573
6672.604,9.671808
6699.604,9.430982
6726.603,9.10769
6753.602,8.838778
6780.601,8.485424
6807.6,7.900184
6834.599,7.316668
6861.598,7.081441
6888.597,6.776654
6915.596,6.52635
6942.594,6.05192
6969.593,5.972306
6996.592,5.888584
7023.591,5.668161
7050.59,5.636117
7077.589,5.819208
7104.588,6.275698
7131.587,6.660379
7158.586,5.826369
7185.585,5.589912
7212.584,6.996743
7239.583,8.212163
7266.582,9.360715
7293.581,10.43265
7320.58,11.39801
7347.579,12.01097
7374.578,12.31885
7401.577,12.48686
7428.576,12.5964
7455.575,12.68277
7482.574,12.72556
7509.573,12.67417
7536.572,12.63607
7563.571,12.54774
7590.57,12.44569
7617.569,12.29236
7644.568,12.09493
7671.566,11.94389
7698.565,11.85723
7725.564,11.74535
7752.563,11.64513
7779.563,11.51171
7806.562,11.42302
7833.561,11.28571
7860.56,11.10187
7887.559,10.8415
7914.558,10.55852
7941.557,10.21682
7968.556,9.815153
7995.555,9.362791
8022.554,8.850276
8049.553,8.270502
8076.552,7.655281
8103.551,7.002454
8130.55,6.286217
8157.548,5.588083
8184.547,4.955684
8211.546,4.619196
8238.545,4.625098
8265.544,4.752924
8292.543,5.106825
8319.542,5.577519
8346.541,6.122747
8373.54,6.837885
8400.539,7.306486
8427.538,7.249302
8454.537,7.900835
8481.536,8.542642
8508.535,9.053586
8535.534,9.236919
8562.533,8.520014
8589.532,9.449755
8616.531,10.83539
8643.53,11.76525
8670.529,12.32963
8697.528,12.87006
8724.527,13.41609
8751.525,13.96525
8778.524,14.35412
8805.523,14.60081
8832.522,14.71617
8859.521,14.77901
8886.521,14.79752
8913.52,14.76612
8940.519,14.73251
8967.518,14.74305
8994.517,14.76728
9021.516,14.83871
9048.515,14.88608
9075.514,14.89936
9102.513,14.95204
9129.512,14.92861
9156.511,14.89178
9183.51,14.83442
9210.509,14.77665
9237.508,14.72963
9264.507,14.68615
9291.506,14.64297
9318.504,14.64757
9345.503,14.65502
9372.502,14.57628
9399.501,14.46211
9426.5,14.35844
9453.499,14.20686
9480.498,14.09929
9507.497,14.00719
9534.496,13.93109
9561.495,13.81624
9588.494,13.69901
9615.493,13.76017
9642.492,13.93664
9669.491,14.1619
9696.49,14.34977
9723.489,14.56417
9750.488,14.76529
9777.487,14.85089
9804.486,14.85416
9831.485,14.8615
9858.484,15.01311
9885.482,15.28871
9912.481,15.42815
9939.48,15.6034
9966.479,15.73407
9993.479,15.84477
10020.48,15.90407
10047.48,15.9927
10074.48,16.1134
10101.47,16.18117
10128.47,16.18493
10155.47,16.21976
10182.47,16.18002
10209.47,16.22369
10236.47,16.23203
10263.47,16.19926
10290.47,16.16824
10317.47,16.11661
10344.47,16.10345
10371.46,16.09246
10398.46,16.02003
10425.46,16.01516
10452.46,15.91091
10479.46,15.77766
10506.46,15.63268
10533.46,15.39641
10560.46,15.04422
10587.46,14.63343
10614.46,14.05055
10641.45,13.41866
10668.45,12.80749
10695.45,12.31145
10722.45,12.1267
10749.45,12.25923
10776.45,12.55631
10803.45,13.0083
10830.45,13.48676
10857.45,13.98402
10884.45,14.49203
10911.44,14.89396
10938.44,15.30045
10965.44,15.72372
10992.44,15.93813
11019.44,16.13842
11046.44,16.28695
11073.44,16.44676
11100.44,16.43515
11127.44,16.51225
11154.43,16.58075
11181.43,16.69627
11208.43,16.90059
11235.43,16.99196
11262.43,17.15748
11289.43,17.23778
11316.43,17.23484
11343.43,17.35578
11370.43,17.35414
11397.43,17.49541
11424.42,17.54742
11451.42,17.62865
11478.42,17.72265
11505.42,17.71822
11532.42,17.77394
11559.42,17.88674
11586.42,17.85973
11613.42,17.75366
11640.42,17.95646
11667.42,17.8424
11694.41,17.98357
11721.41,17.81881
11748.41,17.95644
11775.41,18.03379
11802.41,17.89841
11829.41,17.90407
11856.41,18.07021
11883.41,18.0512
11910.41,18.13992
11937.41,18.11586
11964.4,18.20177
11991.4,18.2009
11999.12,18.39866