File: Data/NIR/S0081LDPE_6.csv
Wavenumber,Intensity
3999.706,2.793289
4026.705,2.803587
4053.704,2.821225
4080.703,2.828142
4107.702,2.832629
4134.701,2.83968
4161.7,2.84585
4188.699,2.868166
4215.698,2.905205
4242.697,2.920589
4269.696,2.938692
4296.694,2.954788
4323.693,2.934378
4350.692,2.960512
4377.691,2.970354
4404.69,2.994402
4431.689,3.075347
4458.688,3.210234
4485.688,3.363288
4512.687,3.541044
4539.686,3.740868
4566.685,3.968683
4593.683,4.123029
4620.682,4.217942
4647.681,4.275394
4674.68,4.241998
4701.679,4.356664
4728.678,4.285193
4755.677,4.226261
4782.676,4.114174
4809.675,4.041032
4836.674,3.913224
4863.673,3.7675
4890.672,3.788235
4917.671,3.817897
4944.67,3.800511
4971.669,3.663672
4998.668,3.78309
5025.667,3.84612
5052.666,3.862564
5079.665,3.841964
5106.664,3.825809
5133.663,3.864188
5160.662,3.824367
5187.661,3.815383
5214.66,3.821439
5241.659,3.849098
5268.658,3.860007
5295.657,3.855488
5322.656,3.8852
5349.655,3.811574
5376.654,3.694278
5403.652,3.598831
5430.651,3.480471
5457.65,3.444183
5484.649,3.393807
5511.648,3.39577
5538.647,3.393274
5565.646,3.402921
5592.646,3.469972
5619.645,3.387068
5646.644,3.281534
5673.643,3.217388
5700.642,3.306938
5727.641,3.304409
5754.639,3.199595
5781.638,3.165373
5808.637,3.201828
5835.636,3.276549
5862.635,3.527601
5889.634,4.225741
5916.633,4.833827
5943.632,5.85803
5970.631,6.653613
5997.63,7.337119
6024.629,7.858544
6051.628,8.239739
6078.627,8.496218
6105.626,8.642243
6132.625,8.828744
6159.624,9.040578
6186.623,9.222082
6213.622,9.336905
6240.621,9.417508
6267.62,9.459672
6294.619,9.49064
6321.618,9.497048
6348.617,9.426392
6375.616,9.260444
6402.615,9.16127
6429.614,8.952256
6456.613,8.650326
6483.612,7.81454
6510.61,8.129658
6537.609,8.290787
6564.608,8.391069
6591.607,8.472447
6618.606,8.463626
6645.605,8.383453
6672.604,8.246139
6699.604,8.057094
6726.603,7.825741
6753.602,7.594239
6780.601,7.315483
6807.6,6.890355
6834.599,6.469356
6861.598,6.240995
6888.597,5.963246
6915.596,5.691332
6942.594,5.329029
6969.593,5.216169
6996.592,5.144104
7023.591,4.978384
7050.59,4.896522
7077.589,4.971963
7104.588,5.371546
7131.587,5.687064
7158.586,5.048956
7185.585,4.773962
7212.584,5.815193
7239.583,6.762583
7266.582,7.606376
7293.581,8.432002
7320.58,9.151628
7347.579,9.567712
7374.578,9.964588
7401.577,10.23289
7428.576,10.35142
7455.575,10.42701
7482.574,10.44782
7509.573,10.44146
7536.572,10.40661
7563.571,10.35396
7590.57,10.28778
7617.569,10.19188
7644.568,10.06281
7671.566,9.965697
7698.565,9.877541
7725.564,9.795465
7752.563,9.710616
7779.563,9.602346
7806.562,9.522545
7833.561,9.416718
7860.56,9.275554
7887.559,9.091946
7914.558,8.859524
7941.557,8.603399
7968.556,8.286896
7995.555,7.936701
8022.554,7.536934
8049.553,7.086669
8076.552,6.582672
8103.551,6.024969
8130.55,5.401531
8157.548,4.794503
8184.547,4.255648
8211.546,3.988732
8238.545,3.970246
8265.544,4.046438
8292.543,4.309767
8319.542,4.659021
8346.541,5.054824
8373.54,5.518332
8400.539,5.851586
8427.538,5.971412
8454.537,6.493167
8481.536,6.987937
8508.535,7.396284
8535.534,7.584605
8562.533,7.271309
8589.532,7.83986
8616.531,8.656829
8643.53,9.320843
8670.529,9.710773
8697.528,10.0584
8724.527,10.48668
8751.525,10.89331
8778.524,11.18862
8805.523,11.37394
8832.522,11.49454
8859.521,11.52431
8886.521,11.56647
8913.52,11.56393
8940.519,11.54803
8967.518,11.54339
8994.517,11.56933
9021.516,11.58144
9048.515,11.61221
9075.514,11.62856
9102.513,11.61936
9129.512,11.62308
9156.511,11.57885
9183.51,11.56989
9210.509,11.51465
9237.508,11.48338
9264.507,11.43097
9291.506,11.39719
9318.504,11.42757
9345.503,11.38934
9372.502,11.34875
9399.501,11.275
9426.5,11.20118
9453.499,11.11667
9480.498,11.04581
9507.497,10.99304
9534.496,10.93087
9561.495,10.84946
9588.494,10.80081
9615.493,10.82112
9642.492,10.92121
9669.491,11.04965
9696.49,11.16027
9723.489,11.271
9750.488,11.38523
9777.487,11.45035
9804.486,11.4365
9831.485,11.44973
9858.484,11.59292
9885.482,11.69966
9912.481,11.818
9939.48,11.96848
9966.479,12.0211
9993.479,12.068
10020.48,12.11164
10047.48,12.18455
10074.48,12.22173
10101.47,12.27544
10128.47,12.29477
10155.47,12.31244
10182.47,12.30469
10209.47,12.33766
10236.47,12.32282
10263.47,12.33087
10290.47,12.31547
10317.47,12.27363
10344.47,12.24776
10371.46,12.2113
10398.46,12.20907
10425.46,12.1652
10452.46,12.12345
10479.46,12.05516
10506.46,11.92875
10533.46,11.75586
10560.46,11.6137
10587.46,11.33665
10614.46,10.98386
10641.45,10.60869
10668.45,10.18355
10695.45,9.89048
10722.45,9.797946
10749.45,9.826583
10776.45,9.96954
10803.45,10.28475
10830.45,10.55386
10857.45,10.81497
10884.45,11.02466
10911.44,11.32937
10938.44,11.593
10965.44,11.77999
10992.44,11.98488
11019.44,12.07409
11046.44,12.15103
11073.44,12.22541
11100.44,12.30768
11127.44,12.32576
11154.43,12.48939
11181.43,12.51143
11208.43,12.68624
11235.43,12.64378
11262.43,12.80546
11289.43,12.72625
11316.43,12.89482
11343.43,12.96989
11370.43,12.95905
11397.43,12.95144
11424.42,13.05066
11451.42,13.03397
11478.42,13.04905
11505.42,13.03539
11532.42,13.18174
11559.42,13.22674
11586.42,13.22996
11613.42,13.18726
11640.42,13.2511
11667.42,13.25714
11694.41,13.16614
11721.41,13.19294
11748.41,13.24828
11775.41,13.19582
11802.41,13.16041
11829.41,13.10193
11856.41,13.1141
11883.41,13.20462
11910.41,12.9514
11937.41,12.92337
11964.4,12.79921
11991.4,12.85396
11999.12,12.65745