File: Data/NIR/S0081LDPE_4.csv
Wavenumber,Intensity
3999.706,2.942806
4026.705,2.955625
4053.704,2.965137
4080.703,2.978857
4107.702,2.98229
4134.701,2.99396
4161.7,2.997508
4188.699,3.019169
4215.698,3.053664
4242.697,3.071459
4269.696,3.092209
4296.694,3.108281
4323.693,3.091774
4350.692,3.111335
4377.691,3.123316
4404.69,3.157175
4431.689,3.268405
4458.688,3.429183
4485.688,3.601523
4512.687,3.783644
4539.686,3.985661
4566.685,4.20925
4593.683,4.366154
4620.682,4.45387
4647.681,4.509451
4674.68,4.478095
4701.679,4.587678
4728.678,4.524009
4755.677,4.468944
4782.676,4.356007
4809.675,4.286654
4836.674,4.164484
4863.673,4.017889
4890.672,4.04095
4917.671,4.064538
4944.67,4.047869
4971.669,3.907606
4998.668,4.03052
5025.667,4.096613
5052.666,4.110659
5079.665,4.089239
5106.664,4.074884
5133.663,4.11179
5160.662,4.069976
5187.661,4.062138
5214.66,4.068781
5241.659,4.094922
5268.658,4.107975
5295.657,4.099508
5322.656,4.136822
5349.655,4.057495
5376.654,3.942672
5403.652,3.836595
5430.651,3.706111
5457.65,3.664964
5484.649,3.609167
5511.648,3.610917
5538.647,3.608344
5565.646,3.62408
5592.646,3.694642
5619.645,3.602134
5646.644,3.466394
5673.643,3.386275
5700.642,3.502147
5727.641,3.494374
5754.639,3.359587
5781.638,3.320256
5808.637,3.357536
5835.636,3.456747
5862.635,3.752905
5889.634,4.472396
5916.633,5.080253
5943.632,6.083375
5970.631,6.886951
5997.63,7.573609
6024.629,8.112515
6051.628,8.50319
6078.627,8.77435
6105.626,8.924592
6132.625,9.122353
6159.624,9.347002
6186.623,9.536749
6213.622,9.660948
6240.621,9.742061
6267.62,9.789045
6294.619,9.828285
6321.618,9.831938
6348.617,9.761571
6375.616,9.58876
6402.615,9.483469
6429.614,9.267111
6456.613,8.951183
6483.612,8.090756
6510.61,8.414711
6537.609,8.586123
6564.608,8.684162
6591.607,8.771721
6618.606,8.76825
6645.605,8.686738
6672.604,8.547484
6699.604,8.348831
6726.603,8.110791
6753.602,7.875954
6780.601,7.592013
6807.6,7.156394
6834.599,6.725211
6861.598,6.499701
6888.597,6.21218
6915.596,5.95146
6942.594,5.579863
6969.593,5.46729
6996.592,5.398592
7023.591,5.234203
7050.59,5.153645
7077.589,5.229794
7104.588,5.629876
7131.587,5.950265
7158.586,5.304082
7185.585,5.030063
7212.584,6.085135
7239.583,7.038374
7266.582,7.919011
7293.581,8.774544
7320.58,9.537846
7347.579,9.981203
7374.578,10.40799
7401.577,10.69533
7428.576,10.82583
7455.575,10.89812
7482.574,10.93941
7509.573,10.92437
7536.572,10.89835
7563.571,10.83063
7590.57,10.76766
7617.569,10.66956
7644.568,10.53144
7671.566,10.41799
7698.565,10.33479
7725.564,10.24065
7752.563,10.15765
7779.563,10.04513
7806.562,9.963361
7833.561,9.846425
7860.56,9.694517
7887.559,9.50156
7914.558,9.269872
7941.557,8.996344
7968.556,8.658908
7995.555,8.29776
8022.554,7.870576
8049.553,7.40423
8076.552,6.884133
8103.551,6.315111
8130.55,5.680109
8157.548,5.06854
8184.547,4.510667
8211.546,4.233024
8238.545,4.216565
8265.544,4.294105
8292.543,4.567281
8319.542,4.924994
8346.541,5.34737
8373.54,5.80511
8400.539,6.142892
8427.538,6.27801
8454.537,6.811522
8481.536,7.329741
8508.535,7.745565
8535.534,7.945159
8562.533,7.617866
8589.532,8.215528
8616.531,9.089704
8643.53,9.782391
8670.529,10.19846
8697.528,10.57662
8724.527,11.05182
8751.525,11.49657
8778.524,11.80745
8805.523,12.00954
8832.522,12.13741
8859.521,12.19809
8886.521,12.23036
8913.52,12.22693
8940.519,12.21979
8967.518,12.22341
8994.517,12.22993
9021.516,12.26045
9048.515,12.28862
9075.514,12.31059
9102.513,12.31568
9129.512,12.31042
9156.511,12.26597
9183.51,12.24202
9210.509,12.19938
9237.508,12.14937
9264.507,12.11646
9291.506,12.06268
9318.504,12.11643
9345.503,12.05437
9372.502,12.02396
9399.501,11.94366
9426.5,11.87648
9453.499,11.77535
9480.498,11.67786
9507.497,11.63939
9534.496,11.5661
9561.495,11.50604
9588.494,11.42949
9615.493,11.46149
9642.492,11.57476
9669.491,11.70527
9696.49,11.82456
9723.489,11.95258
9750.488,12.07303
9777.487,12.13685
9804.486,12.13369
9831.485,12.15806
9858.484,12.29778
9885.482,12.43621
9912.481,12.5749
9939.48,12.68875
9966.479,12.78943
9993.479,12.84974
10020.48,12.90507
10047.48,12.96644
10074.48,13.01881
10101.47,13.07449
10128.47,13.10281
10155.47,13.11482
10182.47,13.10035
10209.47,13.14457
10236.47,13.13018
10263.47,13.14606
10290.47,13.13602
10317.47,13.07585
10344.47,13.08479
10371.46,13.02313
10398.46,12.99664
10425.46,12.94432
10452.46,12.90558
10479.46,12.84587
10506.46,12.68304
10533.46,12.53246
10560.46,12.33464
10587.46,12.04516
10614.46,11.64671
10641.45,11.22706
10668.45,10.84427
10695.45,10.44673
10722.45,10.38317
10749.45,10.42902
10776.45,10.56846
10803.45,10.93879
10830.45,11.19509
10857.45,11.46467
10884.45,11.79906
10911.44,12.0722
10938.44,12.3589
10965.44,12.60192
10992.44,12.79353
11019.44,12.86622
11046.44,13.02827
11073.44,13.09494
11100.44,13.14723
11127.44,13.12095
11154.43,13.3724
11181.43,13.3545
11208.43,13.50342
11235.43,13.6204
11262.43,13.70615
11289.43,13.68375
11316.43,13.71474
11343.43,13.86166
11370.43,13.76597
11397.43,13.89782
11424.42,13.93931
11451.42,14.0448
11478.42,13.98704
11505.42,13.96255
11532.42,14.20226
11559.42,14.11276
11586.42,14.10045
11613.42,14.09512
11640.42,14.28729
11667.42,14.19152
11694.41,14.18499
11721.41,14.16261
11748.41,14.16772
11775.41,14.21252
11802.41,14.08621
11829.41,14.15818
11856.41,14.10112
11883.41,14.15282
11910.41,13.85108
11937.41,13.95647
11964.4,14.03016
11991.4,13.85411
11999.12,13.80696