File: Data/NIR/S0081LDPE_1.csv
Wavenumber,Intensity
3999.706,2.956352
4026.705,2.97074
4053.704,2.978711
4080.703,2.990369
4107.702,2.997099
4134.701,3.006839
4161.7,3.0143
4188.699,3.030593
4215.698,3.070757
4242.697,3.093412
4269.696,3.109869
4296.694,3.125574
4323.693,3.10498
4350.692,3.131273
4377.691,3.143936
4404.69,3.185086
4431.689,3.29424
4458.688,3.476194
4485.688,3.661858
4512.687,3.874544
4539.686,4.103173
4566.685,4.366563
4593.683,4.540133
4620.682,4.651959
4647.681,4.7109
4674.68,4.677819
4701.679,4.801956
4728.678,4.72728
4755.677,4.656067
4782.676,4.530457
4809.675,4.452395
4836.674,4.305547
4863.673,4.137481
4890.672,4.168474
4917.671,4.200131
4944.67,4.173607
4971.669,4.019657
4998.668,4.152881
5025.667,4.23739
5052.666,4.251279
5079.665,4.225564
5106.664,4.213144
5133.663,4.257543
5160.662,4.211238
5187.661,4.204486
5214.66,4.211563
5241.659,4.238759
5268.658,4.255801
5295.657,4.249074
5322.656,4.286248
5349.655,4.202154
5376.654,4.062897
5403.652,3.941466
5430.651,3.801329
5457.65,3.757599
5484.649,3.691618
5511.648,3.697543
5538.647,3.700468
5565.646,3.711645
5592.646,3.795872
5619.645,3.689268
5646.644,3.546028
5673.643,3.45742
5700.642,3.586259
5727.641,3.575544
5754.639,3.432803
5781.638,3.382497
5808.637,3.437533
5835.636,3.54136
5862.635,3.865507
5889.634,4.710654
5916.633,5.414215
5943.632,6.573045
5970.631,7.492399
5997.63,8.273004
6024.629,8.881307
6051.628,9.319316
6078.627,9.618654
6105.626,9.790436
6132.625,10.00805
6159.624,10.25986
6186.623,10.47692
6213.622,10.6207
6240.621,10.71599
6267.62,10.76427
6294.619,10.80033
6321.618,10.81085
6348.617,10.73645
6375.616,10.55178
6402.615,10.43115
6429.614,10.19812
6456.613,9.852782
6483.612,8.897898
6510.61,9.265268
6537.609,9.458749
6564.608,9.571935
6591.607,9.67609
6618.606,9.670268
6645.605,9.583373
6672.604,9.435138
6699.604,9.217503
6726.603,8.94374
6753.602,8.682658
6780.601,8.361368
6807.6,7.879179
6834.599,7.376916
6861.598,7.1235
6888.597,6.795103
6915.596,6.500197
6942.594,6.065598
6969.593,5.941656
6996.592,5.860414
7023.591,5.659416
7050.59,5.571898
7077.589,5.652107
7104.588,6.134554
7131.587,6.511272
7158.586,5.764717
7185.585,5.429774
7212.584,6.672855
7239.583,7.776062
7266.582,8.774353
7293.581,9.752906
7320.58,10.61176
7347.579,11.11665
7374.578,11.58884
7401.577,11.9116
7428.576,12.06639
7455.575,12.15793
7482.574,12.19434
7509.573,12.17911
7536.572,12.15177
7563.571,12.10118
7590.57,12.02739
7617.569,11.91152
7644.568,11.76576
7671.566,11.64651
7698.565,11.56607
7725.564,11.46391
7752.563,11.37168
7779.563,11.25687
7806.562,11.15734
7833.561,11.03427
7860.56,10.86693
7887.559,10.65559
7914.558,10.39647
7941.557,10.0816
7968.556,9.713293
7995.555,9.301806
8022.554,8.806941
8049.553,8.269788
8076.552,7.669229
8103.551,7.011363
8130.55,6.278369
8157.548,5.540441
8184.547,4.884109
8211.546,4.54594
8238.545,4.514791
8265.544,4.623484
8292.543,4.947475
8319.542,5.383523
8346.541,5.877524
8373.54,6.429852
8400.539,6.812621
8427.538,6.977982
8454.537,7.627524
8481.536,8.2352
8508.535,8.703584
8535.534,8.927967
8562.533,8.555159
8589.532,9.250928
8616.531,10.28091
8643.53,11.05346
8670.529,11.53748
8697.528,11.99022
8724.527,12.52241
8751.525,13.02312
8778.524,13.37509
8805.523,13.62244
8832.522,13.76058
8859.521,13.8325
8886.521,13.86792
8913.52,13.86357
8940.519,13.86441
8967.518,13.87735
8994.517,13.88864
9021.516,13.9448
9048.515,13.98611
9075.514,13.98357
9102.513,14.02096
9129.512,13.98432
9156.511,13.98532
9183.51,13.92664
9210.509,13.89019
9237.508,13.85922
9264.507,13.83316
9291.506,13.80432
9318.504,13.7908
9345.503,13.77111
9372.502,13.71633
9399.501,13.63071
9426.5,13.55507
9453.499,13.47692
9480.498,13.3975
9507.497,13.31253
9534.496,13.26575
9561.495,13.15693
9588.494,13.09451
9615.493,13.12927
9642.492,13.24139
9669.491,13.42413
9696.49,13.57107
9723.489,13.69815
9750.488,13.84694
9777.487,13.91197
9804.486,13.96351
9831.485,13.95564
9858.484,14.07228
9885.482,14.28175
9912.481,14.40136
9939.48,14.53274
9966.479,14.66198
9993.479,14.71692
10020.48,14.77851
10047.48,14.88753
10074.48,14.97348
10101.47,15.00184
10128.47,15.04628
10155.47,15.04724
10182.47,15.06981
10209.47,15.08104
10236.47,15.07079
10263.47,15.06973
10290.47,15.06479
10317.47,15.01108
10344.47,15.00081
10371.46,15.00677
10398.46,14.93896
10425.46,14.94934
10452.46,14.86635
10479.46,14.72087
10506.46,14.62566
10533.46,14.46302
10560.46,14.21728
10587.46,13.90024
10614.46,13.43578
10641.45,12.93693
10668.45,12.42665
10695.45,12.08343
10722.45,11.94314
10749.45,11.98088
10776.45,12.22696
10803.45,12.54052
10830.45,12.85768
10857.45,13.23019
10884.45,13.63289
10911.44,13.94006
10938.44,14.20865
10965.44,14.54922
10992.44,14.74674
11019.44,14.89595
11046.44,15.03416
11073.44,15.19742
11100.44,15.23421
11127.44,15.2268
11154.43,15.37466
11181.43,15.44072
11208.43,15.61374
11235.43,15.74694
11262.43,15.81981
11289.43,15.8923
11316.43,15.91188
11343.43,16.02398
11370.43,16.03181
11397.43,16.17193
11424.42,16.16676
11451.42,16.32641
11478.42,16.37822
11505.42,16.29638
11532.42,16.30102
11559.42,16.55136
11586.42,16.50064
11613.42,16.49132
11640.42,16.55119
11667.42,16.45747
11694.41,16.6085
11721.41,16.5205
11748.41,16.648
11775.41,16.66725
11802.41,16.55537
11829.41,16.64847
11856.41,16.58747
11883.41,16.72176
11910.41,16.96524
11937.41,16.93887
11964.4,17.0687
11991.4,16.87899
11999.12,17.06693