File: Data/NIR/S0081LDPE_5.csv
Wavenumber,Intensity
3999.706,2.383012
4026.705,2.388231
4053.704,2.401205
4080.703,2.406718
4107.702,2.412489
4134.701,2.419821
4161.7,2.421009
4188.699,2.43923
4215.698,2.469178
4242.697,2.481577
4269.696,2.499259
4296.694,2.518163
4323.693,2.492248
4350.692,2.519056
4377.691,2.532983
4404.69,2.57274
4431.689,2.722857
4458.688,2.967002
4485.688,3.220983
4512.687,3.499639
4539.686,3.782005
4566.685,4.093804
4593.683,4.306614
4620.682,4.43358
4647.681,4.501894
4674.68,4.451375
4701.679,4.595377
4728.678,4.490375
4755.677,4.410153
4782.676,4.243494
4809.675,4.13915
4836.674,3.951805
4863.673,3.739623
4890.672,3.765591
4917.671,3.803729
4944.67,3.771967
4971.669,3.567157
4998.668,3.744768
5025.667,3.839144
5052.666,3.859728
5079.665,3.82193
5106.664,3.796175
5133.663,3.847977
5160.662,3.78684
5187.661,3.769879
5214.66,3.779247
5241.659,3.814842
5268.658,3.826479
5295.657,3.814597
5322.656,3.86507
5349.655,3.749816
5376.654,3.573157
5403.652,3.422064
5430.651,3.230368
5457.65,3.178112
5484.649,3.091687
5511.648,3.094037
5538.647,3.09008
5565.646,3.110344
5592.646,3.212787
5619.645,3.074425
5646.644,2.893994
5673.643,2.777821
5700.642,2.940003
5727.641,2.92373
5754.639,2.750118
5781.638,2.697451
5808.637,2.749977
5835.636,2.869902
5862.635,3.281278
5889.634,4.304263
5916.633,5.132849
5943.632,6.450264
5970.631,7.453302
5997.63,8.286558
6024.629,8.916319
6051.628,9.362362
6078.627,9.671417
6105.626,9.842226
6132.625,10.06016
6159.624,10.31274
6186.623,10.521
6213.622,10.65377
6240.621,10.74535
6267.62,10.79122
6294.619,10.82433
6321.618,10.82738
6348.617,10.74699
6375.616,10.55434
6402.615,10.43198
6429.614,10.18543
6456.613,9.827236
6483.612,8.838916
6510.61,9.206213
6537.609,9.409128
6564.608,9.519163
6591.607,9.619552
6618.606,9.608241
6645.605,9.50724
6672.604,9.347012
6699.604,9.119659
6726.603,8.842801
6753.602,8.562926
6780.601,8.223072
6807.6,7.702528
6834.599,7.171277
6861.598,6.896194
6888.597,6.534688
6915.596,6.207829
6942.594,5.733159
6969.593,5.587729
6996.592,5.49453
7023.591,5.278272
7050.59,5.177939
7077.589,5.271582
7104.588,5.793484
7131.587,6.201522
7158.586,5.373537
7185.585,5.00275
7212.584,6.360301
7239.583,7.530355
7266.582,8.566497
7293.581,9.549927
7320.58,10.39403
7347.579,10.88085
7374.578,11.3443
7401.577,11.65553
7428.576,11.79173
7455.575,11.86389
7482.574,11.90142
7509.573,11.87896
7536.572,11.85587
7563.571,11.78582
7590.57,11.70968
7617.569,11.59345
7644.568,11.4489
7671.566,11.32955
7698.565,11.23128
7725.564,11.14
7752.563,11.03263
7779.563,10.91776
7806.562,10.81275
7833.561,10.68497
7860.56,10.5178
7887.559,10.3067
7914.558,10.04102
7941.557,9.731369
7968.556,9.351006
7995.555,8.932592
8022.554,8.44413
8049.553,7.889312
8076.552,7.262012
8103.551,6.568932
8130.55,5.782255
8157.548,4.990491
8184.547,4.254581
8211.546,3.876511
8238.545,3.836453
8265.544,3.967867
8292.543,4.311498
8319.542,4.785185
8346.541,5.32233
8373.54,5.908431
8400.539,6.338271
8427.538,6.49503
8454.537,7.149632
8481.536,7.761538
8508.535,8.256104
8535.534,8.487086
8562.533,8.103136
8589.532,8.773543
8616.531,9.790722
8643.53,10.54268
8670.529,11.00036
8697.528,11.41796
8724.527,11.92823
8751.525,12.37725
8778.524,12.70235
8805.523,12.92017
8832.522,13.05415
8859.521,13.10644
8886.521,13.13812
8913.52,13.13356
8940.519,13.11124
8967.518,13.11259
8994.517,13.13508
9021.516,13.15161
9048.515,13.18732
9075.514,13.19997
9102.513,13.1963
9129.512,13.19057
9156.511,13.12825
9183.51,13.11999
9210.509,13.0676
9237.508,13.02078
9264.507,12.97286
9291.506,12.9317
9318.504,12.9474
9345.503,12.92062
9372.502,12.86212
9399.501,12.79244
9426.5,12.72578
9453.499,12.59855
9480.498,12.50307
9507.497,12.45061
9534.496,12.35428
9561.495,12.31162
9588.494,12.26287
9615.493,12.29065
9642.492,12.37112
9669.491,12.50892
9696.49,12.67921
9723.489,12.75675
9750.488,12.88883
9777.487,12.98747
9804.486,12.95356
9831.485,12.99858
9858.484,13.14599
9885.482,13.25615
9912.481,13.39914
9939.48,13.52886
9966.479,13.63088
9993.479,13.69538
10020.48,13.74154
10047.48,13.79536
10074.48,13.8513
10101.47,13.8863
10128.47,13.95334
10155.47,13.96259
10182.47,13.95846
10209.47,13.99433
10236.47,13.94785
10263.47,13.97722
10290.47,13.94211
10317.47,13.88167
10344.47,13.90725
10371.46,13.885
10398.46,13.80537
10425.46,13.77511
10452.46,13.70922
10479.46,13.64469
10506.46,13.52237
10533.46,13.3372
10560.46,13.12978
10587.46,12.8276
10614.46,12.45819
10641.45,11.97534
10668.45,11.51779
10695.45,11.16246
10722.45,11.0728
10749.45,11.09634
10776.45,11.23156
10803.45,11.62655
10830.45,11.93313
10857.45,12.21327
10884.45,12.56103
10911.44,12.77152
10938.44,13.12752
10965.44,13.3896
10992.44,13.5629
11019.44,13.70591
11046.44,13.83287
11073.44,13.89023
11100.44,14.00395
11127.44,13.96444
11154.43,14.12389
11181.43,14.1935
11208.43,14.35757
11235.43,14.34714
11262.43,14.53794
11289.43,14.50121
11316.43,14.57332
11343.43,14.68894
11370.43,14.72847
11397.43,14.72038
11424.42,14.84597
11451.42,14.79854
11478.42,14.88718
11505.42,14.90304
11532.42,14.99276
11559.42,15.07671
11586.42,14.97146
11613.42,14.95753
11640.42,15.07261
11667.42,15.1474
11694.41,15.03626
11721.41,14.96965
11748.41,15.12264
11775.41,15.01451
11802.41,14.97439
11829.41,14.98896
11856.41,14.98118
11883.41,14.954
11910.41,14.6697
11937.41,14.72692
11964.4,14.71193
11991.4,14.38686
11999.12,14.63612