File: Data/NIR/S0081LDPE_3.csv
Wavenumber,Intensity
3999.706,3.22948
4026.705,3.24366
4053.704,3.255411
4080.703,3.263728
4107.702,3.266304
4134.701,3.271564
4161.7,3.282438
4188.699,3.299266
4215.698,3.337681
4242.697,3.355575
4269.696,3.380617
4296.694,3.394935
4323.693,3.36485
4350.692,3.399979
4377.691,3.412003
4404.69,3.46535
4431.689,3.633941
4458.688,3.86547
4485.688,4.077256
4512.687,4.30614
4539.686,4.536239
4566.685,4.794022
4593.683,4.961718
4620.682,5.065117
4647.681,5.124139
4674.68,5.091961
4701.679,5.208035
4728.678,5.139162
4755.677,5.075368
4782.676,4.952494
4809.675,4.873067
4836.674,4.730555
4863.673,4.562086
4890.672,4.586849
4917.671,4.618864
4944.67,4.591181
4971.669,4.429073
4998.668,4.567467
5025.667,4.649695
5052.666,4.664148
5079.665,4.638549
5106.664,4.622801
5133.663,4.665299
5160.662,4.61725
5187.661,4.608768
5214.66,4.612459
5241.659,4.643112
5268.658,4.658065
5295.657,4.646091
5322.656,4.682592
5349.655,4.594999
5376.654,4.453971
5403.652,4.323679
5430.651,4.163936
5457.65,4.113007
5484.649,4.031876
5511.648,4.034698
5538.647,4.033823
5565.646,4.049044
5592.646,4.142306
5619.645,4.007505
5646.644,3.829317
5673.643,3.704609
5700.642,3.881536
5727.641,3.863921
5754.639,3.6707
5781.638,3.607538
5808.637,3.670863
5835.636,3.803345
5862.635,4.201889
5889.634,5.063376
5916.633,5.718353
5943.632,6.75876
5970.631,7.561687
5997.63,8.238015
6024.629,8.76029
6051.628,9.137874
6078.627,9.394476
6105.626,9.539018
6132.625,9.723358
6159.624,9.938177
6186.623,10.12521
6213.622,10.23948
6240.621,10.31789
6267.62,10.35384
6294.619,10.38313
6321.618,10.39179
6348.617,10.32538
6375.616,10.17054
6402.615,10.05923
6429.614,9.859066
6456.613,9.55808
6483.612,8.736414
6510.61,9.050868
6537.609,9.210699
6564.608,9.300089
6591.607,9.388838
6618.606,9.379165
6645.605,9.304034
6672.604,9.179617
6699.604,8.989607
6726.603,8.752528
6753.602,8.529408
6780.601,8.245264
6807.6,7.82657
6834.599,7.401248
6861.598,7.169315
6888.597,6.883381
6915.596,6.624053
6942.594,6.244751
6969.593,6.126018
6996.592,6.051578
7023.591,5.870899
7050.59,5.792256
7077.589,5.871645
7104.588,6.293497
7131.587,6.616815
7158.586,5.958579
7185.585,5.654683
7212.584,6.756668
7239.583,7.711133
7266.582,8.567836
7293.581,9.397168
7320.58,10.12536
7347.579,10.54586
7374.578,10.93763
7401.577,11.21341
7428.576,11.34674
7455.575,11.41052
7482.574,11.4409
7509.573,11.42693
7536.572,11.40334
7563.571,11.35464
7590.57,11.28841
7617.569,11.19553
7644.568,11.07051
7671.566,10.96142
7698.565,10.89339
7725.564,10.8162
7752.563,10.72426
7779.563,10.62673
7806.562,10.53947
7833.561,10.43047
7860.56,10.28539
7887.559,10.10714
7914.558,9.883729
7941.557,9.622819
7968.556,9.312257
7995.555,8.956739
8022.554,8.54515
8049.553,8.07855
8076.552,7.572635
8103.551,7.010673
8130.55,6.355891
8157.548,5.707861
8184.547,5.09674
8211.546,4.766726
8238.545,4.737432
8265.544,4.846173
8292.543,5.154992
8319.542,5.545687
8346.541,5.999971
8373.54,6.482903
8400.539,6.823184
8427.538,6.96431
8454.537,7.515181
8481.536,8.028994
8508.535,8.42488
8535.534,8.626702
8562.533,8.302591
8589.532,8.894486
8616.531,9.737881
8643.53,10.39041
8670.529,10.78693
8697.528,11.16348
8724.527,11.60948
8751.525,12.00479
8778.524,12.3221
8805.523,12.50475
8832.522,12.61178
8859.521,12.66942
8886.521,12.69839
8913.52,12.70317
8940.519,12.68353
8967.518,12.6953
8994.517,12.69814
9021.516,12.73784
9048.515,12.76261
9075.514,12.78085
9102.513,12.8051
9129.512,12.7685
9156.511,12.75771
9183.51,12.71966
9210.509,12.69024
9237.508,12.64855
9264.507,12.62009
9291.506,12.60845
9318.504,12.58576
9345.503,12.574
9372.502,12.51911
9399.501,12.45469
9426.5,12.38197
9453.499,12.31317
9480.498,12.25857
9507.497,12.20086
9534.496,12.13564
9561.495,12.0702
9588.494,12.00668
9615.493,12.03323
9642.492,12.13331
9669.491,12.25272
9696.49,12.38045
9723.489,12.46631
9750.488,12.6306
9777.487,12.64394
9804.486,12.69434
9831.485,12.70496
9858.484,12.82221
9885.482,12.96284
9912.481,13.06034
9939.48,13.21098
9966.479,13.2669
9993.479,13.36307
10020.48,13.3752
10047.48,13.43063
10074.48,13.52185
10101.47,13.5594
10128.47,13.56568
10155.47,13.58437
10182.47,13.61283
10209.47,13.59933
10236.47,13.61117
10263.47,13.60422
10290.47,13.58219
10317.47,13.55637
10344.47,13.54635
10371.46,13.4906
10398.46,13.47778
10425.46,13.50088
10452.46,13.37926
10479.46,13.35682
10506.46,13.25168
10533.46,13.08044
10560.46,12.86414
10587.46,12.6208
10614.46,12.2742
10641.45,11.90881
10668.45,11.46887
10695.45,11.18277
10722.45,11.02663
10749.45,11.11831
10776.45,11.25748
10803.45,11.50775
10830.45,11.80487
10857.45,12.10091
10884.45,12.4496
10911.44,12.69616
10938.44,12.91271
10965.44,13.12475
10992.44,13.28414
11019.44,13.47691
11046.44,13.58406
11073.44,13.65082
11100.44,13.75627
11127.44,13.7824
11154.43,13.82892
11181.43,13.8985
11208.43,14.06221
11235.43,14.10391
11262.43,14.20525
11289.43,14.23522
11316.43,14.25559
11343.43,14.37554
11370.43,14.36495
11397.43,14.50212
11424.42,14.47241
11451.42,14.57432
11478.42,14.71971
11505.42,14.52214
11532.42,14.60216
11559.42,14.78842
11586.42,14.75071
11613.42,14.69189
11640.42,14.86693
11667.42,14.6935
11694.41,14.80749
11721.41,14.65716
11748.41,14.79743
11775.41,14.76584
11802.41,14.64734
11829.41,14.64882
11856.41,14.59406
11883.41,14.60631
11910.41,14.72203
11937.41,14.71578
11964.4,14.65011
11991.4,14.65341
11999.12,14.68164