File: Data/NIR/S0081LDPE_2.csv
Wavenumber,Intensity
3999.706,3.105731
4026.705,3.11976
4053.704,3.132078
4080.703,3.138485
4107.702,3.14552
4134.701,3.15047
4161.7,3.159536
4188.699,3.176735
4215.698,3.212567
4242.697,3.235996
4269.696,3.255036
4296.694,3.268801
4323.693,3.243482
4350.692,3.272945
4377.691,3.290604
4404.69,3.321956
4431.689,3.411045
4458.688,3.567275
4485.688,3.724967
4512.687,3.913177
4539.686,4.119118
4566.685,4.348433
4593.683,4.504085
4620.682,4.601562
4647.681,4.656027
4674.68,4.625512
4701.679,4.737779
4728.678,4.671742
4755.677,4.609899
4782.676,4.499639
4809.675,4.429577
4836.674,4.303044
4863.673,4.154259
4890.672,4.17916
4917.671,4.204699
4944.67,4.183417
4971.669,4.047064
4998.668,4.167463
5025.667,4.23559
5052.666,4.249921
5079.665,4.227981
5106.664,4.214952
5133.663,4.252675
5160.662,4.216381
5187.661,4.205
5214.66,4.214051
5241.659,4.236849
5268.658,4.253019
5295.657,4.24307
5322.656,4.275879
5349.655,4.203405
5376.654,4.076921
5403.652,3.976086
5430.651,3.851218
5457.65,3.816478
5484.649,3.755634
5511.648,3.760098
5538.647,3.760627
5565.646,3.771388
5592.646,3.838619
5619.645,3.743205
5646.644,3.627858
5673.643,3.551529
5700.642,3.662308
5727.641,3.654228
5754.639,3.538688
5781.638,3.498329
5808.637,3.535765
5835.636,3.621914
5862.635,3.891746
5889.634,4.628715
5916.633,5.244154
5943.632,6.251926
5970.631,7.057358
5997.63,7.738163
6024.629,8.26362
6051.628,8.644186
6078.627,8.904655
6105.626,9.04866
6132.625,9.233977
6159.624,9.454022
6186.623,9.636903
6213.622,9.75771
6240.621,9.83562
6267.62,9.876228
6294.619,9.903902
6321.618,9.911696
6348.617,9.842949
6375.616,9.687224
6402.615,9.583031
6429.614,9.374976
6456.613,9.070509
6483.612,8.238985
6510.61,8.553149
6537.609,8.715811
6564.608,8.811649
6591.607,8.896812
6618.606,8.891216
6645.605,8.809622
6672.604,8.683226
6699.604,8.496037
6726.603,8.258934
6753.602,8.026352
6780.601,7.74612
6807.6,7.329061
6834.599,6.893898
6861.598,6.669803
6888.597,6.386101
6915.596,6.124884
6942.594,5.749801
6969.593,5.640769
6996.592,5.567815
7023.591,5.399696
7050.59,5.318948
7077.589,5.393088
7104.588,5.800939
7131.587,6.122776
7158.586,5.478364
7185.585,5.186457
7212.584,6.2548
7239.583,7.202292
7266.582,8.059946
7293.581,8.888549
7320.58,9.62748
7347.579,10.04295
7374.578,10.44198
7401.577,10.71756
7428.576,10.8474
7455.575,10.91375
7482.574,10.9433
7509.573,10.93481
7536.572,10.90435
7563.571,10.85262
7590.57,10.78644
7617.569,10.69302
7644.568,10.56141
7671.566,10.45574
7698.565,10.39283
7725.564,10.30285
7752.563,10.21689
7779.563,10.11485
7806.562,10.03165
7833.561,9.921447
7860.56,9.768757
7887.559,9.586091
7914.558,9.364795
7941.557,9.098527
7968.556,8.787051
7995.555,8.431493
8022.554,8.01193
8049.553,7.54094
8076.552,7.038204
8103.551,6.480389
8130.55,5.853616
8157.548,5.223911
8184.547,4.686265
8211.546,4.390055
8238.545,4.369466
8265.544,4.461852
8292.543,4.732099
8319.542,5.085663
8346.541,5.511172
8373.54,5.965891
8400.539,6.299634
8427.538,6.430439
8454.537,6.974088
8481.536,7.475709
8508.535,7.878891
8535.534,8.088924
8562.533,7.755435
8589.532,8.333041
8616.531,9.184851
8643.53,9.84193
8670.529,10.25452
8697.528,10.61103
8724.527,11.05799
8751.525,11.46209
8778.524,11.74247
8805.523,11.9499
8832.522,12.05842
8859.521,12.1085
8886.521,12.14206
8913.52,12.15109
8940.519,12.12736
8967.518,12.13628
8994.517,12.14164
9021.516,12.17201
9048.515,12.22347
9075.514,12.21148
9102.513,12.23462
9129.512,12.20197
9156.511,12.18629
9183.51,12.14564
9210.509,12.11825
9237.508,12.07444
9264.507,12.05269
9291.506,12.02695
9318.504,12.02263
9345.503,12.00139
9372.502,11.94441
9399.501,11.89198
9426.5,11.79753
9453.499,11.72218
9480.498,11.66098
9507.497,11.59343
9534.496,11.54751
9561.495,11.48207
9588.494,11.40598
9615.493,11.44107
9642.492,11.54062
9669.491,11.63972
9696.49,11.78458
9723.489,11.89324
9750.488,12.00842
9777.487,12.06026
9804.486,12.0726
9831.485,12.09746
9858.484,12.19205
9885.482,12.34147
9912.481,12.42968
9939.48,12.55668
9966.479,12.66177
9993.479,12.73138
10020.48,12.73696
10047.48,12.80333
10074.48,12.87112
10101.47,12.93284
10128.47,12.94638
10155.47,12.91015
10182.47,12.94738
10209.47,12.97609
10236.47,12.96256
10263.47,12.96172
10290.47,12.93311
10317.47,12.90733
10344.47,12.90371
10371.46,12.86457
10398.46,12.84952
10425.46,12.84327
10452.46,12.73301
10479.46,12.69258
10506.46,12.6309
10533.46,12.41267
10560.46,12.22266
10587.46,11.94926
10614.46,11.58092
10641.45,11.21266
10668.45,10.7561
10695.45,10.50986
10722.45,10.33354
10749.45,10.39117
10776.45,10.60675
10803.45,10.81348
10830.45,11.10582
10857.45,11.41504
10884.45,11.72741
10911.44,11.96212
10938.44,12.21255
10965.44,12.46358
10992.44,12.62768
11019.44,12.76824
11046.44,12.86919
11073.44,12.95638
11100.44,12.99419
11127.44,12.98742
11154.43,13.09017
11181.43,13.16156
11208.43,13.27287
11235.43,13.39174
11262.43,13.54898
11289.43,13.49721
11316.43,13.50777
11343.43,13.63111
11370.43,13.60145
11397.43,13.67335
11424.42,13.75074
11451.42,13.80042
11478.42,13.84983
11505.42,13.75984
11532.42,13.81632
11559.42,13.98119
11586.42,13.91461
11613.42,13.91588
11640.42,13.93812
11667.42,13.82844
11694.41,13.94149
11721.41,13.89761
11748.41,13.90174
11775.41,13.9252
11802.41,13.86162
11829.41,13.97334
11856.41,13.82607
11883.41,13.82411
11910.41,13.87764
11937.41,13.76402
11964.4,13.75501
11991.4,13.69413
11999.12,13.91124